EXPLAIN
TAG	CHRONOA
TITLE	LABEL	CHRONOA	Test Identifier
DATE	LABEL	21.8.2024	Date
TIME	LABEL	17:08:31	Time
NOTES	NOTES	1	Notes...
	
PSTAT	PSTAT	IFC1010-36105	Potentiostat
VPRESTEP	POTEN	5.00000E-001	F	Pre-step Voltage (V)
TPRESTEP	QUANT	1.00000E+001	Pre-step Delay Time (s)
VSTEP1	POTEN	1.00000E+000	F	Step 1 Voltage (V)
TSTEP1	QUANT	3.00000E+001	Step 1 Time (s)
VSTEP2	POTEN	1.60000E+000	F	Step 2 Voltage (V)
TSTEP2	QUANT	7.20000E+003	Step 2 Time (s)
SAMPLETIME	QUANT	4.99999E+000	Sample Period (s)
DECIMATE	TOGGLE	F	Decimate
ILIMIT	QUANT	6.00000E+001	Limit I (mA/cm^2)
IMODE	SELECTOR	0	I/E Range Mode
IRANGE	QUANT	3.00000E+001	Max Current (mA)
EQDELAY	QUANT	0.00000E+000	Equil. Time (s)
SAMPLINGMODE	SELECTOR	1	Sampling Mode
AREA	QUANT	1.00000E+000	Sample Area (cm^2)
IRCOMP	SELECTOR	0	IRComp
PFCOR	QUANT	5.00000E+001	PF Corr. (ohm)
ELECTRODETYPE	SELECTOR	0	Electrode Type
STRIPPING	TOGGLE	F	Used for Stripping
SEQUENCER	TOGGLE	TRUE	Run as Sequence
PSTATMODEL	IQUANT	64	Pstat Model
PSTATSECTION	LABEL	IFC1010-36105	Pstat Section
PSTATSERIALNO	LABEL	36105	Pstat Serial Number
CTRLMODE	IQUANT	1	Control Mode
ELECTROMETER	IQUANT	0	RE=0 or CS=1
IESTAB	IQUANT	0	I/E Stability
CASPEED	IQUANT	4	Control Amp Speed
CONVENTION	IQUANT	1	Current Convention
ICHRANGE	IQUANT	2	Ich Range
ICHRANGEMODE	TOGGLE	T	Ich Auto Range
ICHOFFSETENABLE	TOGGLE	F	Ich Offset Enable
ICHOFFSET	QUANT	0	Ich Offset (V)
ICHFILTER	IQUANT	4	Ich Filter
VCHRANGE	IQUANT	2	Vch Range
VCHRANGEMODE	TOGGLE	F	Vch Auto Range
VCHOFFSETENABLE	TOGGLE	F	Vch Offset Enable
VCHOFFSET	QUANT	0	Vch Offset (V)
VCHFILTER	IQUANT	4	Vch Filter
IERANGELOWERLIMIT	IQUANT	4	I/E Range Lower Limit
IERANGEMODE	TOGGLE	T	I/E AutoRange
IERANGE	IQUANT	11	I/E Range
ACHSELECT	IQUANT	0	Ach Select
ACHRANGE	IQUANT	2	Ach Range
ACHOFFSETENABLE	TOGGLE	F	Ach Offset Enable
ACHOFFSET	QUANT	0	Ach Offset (V)
ACHFILTER	IQUANT	1	Ach Filter
SENSECABLEID	IQUANT	13	Sense Cable ID
PWRCABLEID	IQUANT	13	Power Cable ID
DCCALDATE	LABEL	10/17/2023	DC Calibration Date
ACCALDATE	LABEL	6/2/2023	AC Calibration Date
FRAMEWORKVERSION	LABEL	7.10.3	Framework Version
INSTRUMENTVERSION	LABEL	4.91	Instrument Version
COMMVERSION	LABEL	3.10	Communications Version
CPUPLDVERSION	LABEL	2.22	CPU PLD Version
CTRLPLDVERSION	LABEL	0.00	CTRL PLD Version
PSTATPLDVERSION	LABEL	0.00	PSTAT PLD Version
CURVE	TABLE	1448
	Pt	T	Vf	Im	Vu	Sig	Ach	IERange	Over	Temp
	#	s	V vs. Ref.	A	V	V	V	#	bits	deg C
	0	-5	5.00418E-001	1.42428E-005	0.00000E+000	5.00076E-001	0.00000E+000	11	...........	1489.83
	1	0	5.00394E-001	1.44169E-006	0.00000E+000	5.00076E-001	0.00000E+000	10	...........	1489.79
	2	5	1.00050E+000	4.46512E-006	0.00000E+000	1.00007E+000	0.00000E+000	9	...........	1489.79
	3	10	1.00050E+000	4.14923E-006	0.00000E+000	1.00007E+000	0.00000E+000	8	...........	1489.88
	4	15	1.00050E+000	4.15336E-006	0.00000E+000	1.00007E+000	0.00000E+000	7	...........	1489.88
	5	20	1.00050E+000	4.20952E-006	0.00000E+000	1.00007E+000	0.00000E+000	7	...........	1489.83
	6	25	1.00050E+000	4.31561E-006	0.00000E+000	1.00007E+000	0.00000E+000	7	...........	1489.84
	7	30	1.00050E+000	4.48339E-006	0.00000E+000	1.00007E+000	0.00000E+000	7	...........	1489.79
	8	35	1.60062E+000	1.09390E-005	0.00000E+000	1.60008E+000	0.00000E+000	7	....ih..i..	1489.74
	9	40	1.60066E+000	7.14409E-005	0.00000E+000	1.60008E+000	0.00000E+000	8	...........	1489.88
	10	45	1.60066E+000	6.69829E-005	0.00000E+000	1.60008E+000	0.00000E+000	8	...........	1489.88
	11	50	1.60067E+000	6.49485E-005	0.00000E+000	1.60008E+000	0.00000E+000	8	...........	1489.88
	12	55	1.60066E+000	6.37868E-005	0.00000E+000	1.60008E+000	0.00000E+000	8	...........	1489.88
	13	60	1.60066E+000	6.28599E-005	0.00000E+000	1.60008E+000	0.00000E+000	8	...........	1489.88
	14	65	1.60066E+000	6.22879E-005	0.00000E+000	1.60008E+000	0.00000E+000	8	...........	1489.88
	15	70	1.60066E+000	6.17030E-005	0.00000E+000	1.60008E+000	0.00000E+000	8	...........	1489.88
	16	75	1.60067E+000	6.14797E-005	0.00000E+000	1.60008E+000	0.00000E+000	8	...........	1489.88
	17	80	1.60066E+000	6.14652E-005	0.00000E+000	1.60008E+000	0.00000E+000	8	...........	1489.88
	18	85	1.60067E+000	6.10651E-005	0.00000E+000	1.60008E+000	0.00000E+000	8	...........	1489.88
	19	90	1.60066E+000	6.09552E-005	0.00000E+000	1.60008E+000	0.00000E+000	8	...........	1489.79
	20	95	1.60066E+000	6.08670E-005	0.00000E+000	1.60008E+000	0.00000E+000	8	...........	1489.88
	21	100	1.60067E+000	6.08072E-005	0.00000E+000	1.60008E+000	0.00000E+000	8	...........	1489.88
	22	105	1.60067E+000	6.05230E-005	0.00000E+000	1.60008E+000	0.00000E+000	8	...........	1489.88
	23	110	1.60067E+000	6.05995E-005	0.00000E+000	1.60008E+000	0.00000E+000	8	...........	1489.88
	24	115	1.60067E+000	6.05440E-005	0.00000E+000	1.60008E+000	0.00000E+000	8	...........	1489.88
	25	120	1.60067E+000	6.02275E-005	0.00000E+000	1.60008E+000	0.00000E+000	8	...........	1489.88
	26	125	1.60067E+000	6.02493E-005	0.00000E+000	1.60008E+000	0.00000E+000	8	...........	1489.88
	27	130	1.60066E+000	6.01188E-005	0.00000E+000	1.60008E+000	0.00000E+000	8	...........	1489.88
	28	135	1.60066E+000	6.74293E-005	0.00000E+000	1.60008E+000	0.00000E+000	8	...........	1489.88
	29	140	1.60066E+000	6.45868E-005	0.00000E+000	1.60008E+000	0.00000E+000	8	...........	1489.88
	30	145	1.60067E+000	6.21366E-005	0.00000E+000	1.60008E+000	0.00000E+000	8	...........	1489.88
	31	150	1.60067E+000	5.87341E-005	0.00000E+000	1.60008E+000	0.00000E+000	8	...........	1489.88
	32	155	1.60066E+000	5.96179E-005	0.00000E+000	1.60008E+000	0.00000E+000	8	...........	1489.88
	33	160	1.60066E+000	5.89500E-005	0.00000E+000	1.60008E+000	0.00000E+000	8	...........	1489.88
	34	165	1.60066E+000	5.72668E-005	0.00000E+000	1.60008E+000	0.00000E+000	8	...........	1489.88
	35	170	1.60066E+000	5.86757E-005	0.00000E+000	1.60008E+000	0.00000E+000	8	...........	1489.88
	36	175	1.60066E+000	5.89628E-005	0.00000E+000	1.60008E+000	0.00000E+000	8	...........	1489.88
	37	180	1.60066E+000	5.91832E-005	0.00000E+000	1.60008E+000	0.00000E+000	8	...........	1489.88
	38	185	1.60067E+000	5.91262E-005	0.00000E+000	1.60008E+000	0.00000E+000	8	...........	1489.88
	39	190	1.60067E+000	5.91858E-005	0.00000E+000	1.60008E+000	0.00000E+000	8	...........	1489.88
	40	195	1.60066E+000	5.91665E-005	0.00000E+000	1.60008E+000	0.00000E+000	8	...........	1489.88
	41	200	1.60066E+000	5.90818E-005	0.00000E+000	1.60008E+000	0.00000E+000	8	...........	1489.88
	42	205	1.60066E+000	5.90795E-005	0.00000E+000	1.60008E+000	0.00000E+000	8	...........	1489.88
	43	210	1.60066E+000	5.90832E-005	0.00000E+000	1.60008E+000	0.00000E+000	8	...........	1489.88
	44	215	1.60066E+000	5.89956E-005	0.00000E+000	1.60008E+000	0.00000E+000	8	...........	1489.88
	45	220	1.60066E+000	5.89811E-005	0.00000E+000	1.60008E+000	0.00000E+000	8	...........	1489.88
	46	225	1.60066E+000	5.88789E-005	0.00000E+000	1.60008E+000	0.00000E+000	8	...........	1489.88
	47	230	1.60065E+000	5.88723E-005	0.00000E+000	1.60008E+000	0.00000E+000	8	...........	1489.88
	48	235	1.60066E+000	5.89340E-005	0.00000E+000	1.60008E+000	0.00000E+000	8	...........	1489.88
	49	240	1.60067E+000	5.88005E-005	0.00000E+000	1.60008E+000	0.00000E+000	8	...........	1489.88
	50	245	1.60066E+000	5.81938E-005	0.00000E+000	1.60008E+000	0.00000E+000	8	...........	1489.88
	51	250	1.60067E+000	5.84389E-005	0.00000E+000	1.60008E+000	0.00000E+000	8	...........	1489.88
	52	255	1.60066E+000	5.85861E-005	0.00000E+000	1.60008E+000	0.00000E+000	8	...........	1489.88
	53	260	1.60066E+000	5.87197E-005	0.00000E+000	1.60008E+000	0.00000E+000	8	...........	1489.88
	54	265	1.60066E+000	5.86165E-005	0.00000E+000	1.60008E+000	0.00000E+000	8	...........	1489.88
	55	270	1.60066E+000	5.87244E-005	0.00000E+000	1.60008E+000	0.00000E+000	8	...........	1489.88
	56	275	1.60066E+000	5.86438E-005	0.00000E+000	1.60008E+000	0.00000E+000	8	...........	1489.88
	57	280	1.60067E+000	5.86345E-005	0.00000E+000	1.60008E+000	0.00000E+000	8	...........	1489.88
	58	285	1.60066E+000	5.85492E-005	0.00000E+000	1.60008E+000	0.00000E+000	8	...........	1489.88
	59	290	1.60067E+000	5.85148E-005	0.00000E+000	1.60008E+000	0.00000E+000	8	...........	1489.88
	60	295	1.60066E+000	5.84924E-005	0.00000E+000	1.60008E+000	0.00000E+000	8	...........	1489.88
	61	300	1.60067E+000	5.84116E-005	0.00000E+000	1.60008E+000	0.00000E+000	8	...........	1489.88
	62	305	1.60066E+000	5.84132E-005	0.00000E+000	1.60008E+000	0.00000E+000	8	...........	1489.88
	63	310	1.60067E+000	5.82934E-005	0.00000E+000	1.60008E+000	0.00000E+000	8	...........	1489.88
	64	315	1.60066E+000	5.84151E-005	0.00000E+000	1.60008E+000	0.00000E+000	8	...........	1489.88
	65	320	1.60067E+000	5.85649E-005	0.00000E+000	1.60008E+000	0.00000E+000	8	...........	1489.88
	66	325	1.60067E+000	5.84800E-005	0.00000E+000	1.60008E+000	0.00000E+000	8	...........	1489.88
	67	330	1.60067E+000	5.84679E-005	0.00000E+000	1.60008E+000	0.00000E+000	8	...........	1489.88
	68	335	1.60067E+000	5.85057E-005	0.00000E+000	1.60008E+000	0.00000E+000	8	...........	1489.88
	69	340	1.60067E+000	5.83847E-005	0.00000E+000	1.60008E+000	0.00000E+000	8	...........	1489.88
	70	345	1.60066E+000	5.83817E-005	0.00000E+000	1.60008E+000	0.00000E+000	8	...........	1489.88
	71	350	1.60067E+000	5.83147E-005	0.00000E+000	1.60008E+000	0.00000E+000	8	...........	1489.88
	72	355	1.60066E+000	5.82503E-005	0.00000E+000	1.60008E+000	0.00000E+000	8	...........	1489.88
	73	360	1.60066E+000	5.82707E-005	0.00000E+000	1.60008E+000	0.00000E+000	8	...........	1489.88
	74	365	1.60066E+000	5.82054E-005	0.00000E+000	1.60008E+000	0.00000E+000	8	...........	1489.88
	75	370	1.60066E+000	5.81631E-005	0.00000E+000	1.60008E+000	0.00000E+000	8	...........	1489.88
	76	375	1.60066E+000	5.81553E-005	0.00000E+000	1.60008E+000	0.00000E+000	8	...........	1489.88
	77	380	1.60067E+000	5.81242E-005	0.00000E+000	1.60008E+000	0.00000E+000	8	...........	1489.83
	78	385	1.60067E+000	5.81016E-005	0.00000E+000	1.60008E+000	0.00000E+000	8	...........	1489.88
	79	390	1.60067E+000	5.80333E-005	0.00000E+000	1.60008E+000	0.00000E+000	8	...........	1489.88
	80	395	1.60067E+000	5.79857E-005	0.00000E+000	1.60008E+000	0.00000E+000	8	...........	1489.88
	81	400	1.60066E+000	5.80539E-005	0.00000E+000	1.60008E+000	0.00000E+000	8	...........	1489.88
	82	405	1.60067E+000	5.80278E-005	0.00000E+000	1.60008E+000	0.00000E+000	8	...........	1489.88
	83	410	1.60067E+000	5.79730E-005	0.00000E+000	1.60008E+000	0.00000E+000	8	...........	1489.88
	84	415	1.60066E+000	5.78295E-005	0.00000E+000	1.60008E+000	0.00000E+000	8	...........	1489.83
	85	420	1.60067E+000	5.78597E-005	0.00000E+000	1.60008E+000	0.00000E+000	8	...........	1489.88
	86	425	1.60066E+000	5.78889E-005	0.00000E+000	1.60008E+000	0.00000E+000	8	...........	1489.83
	87	430	1.60067E+000	5.78244E-005	0.00000E+000	1.60008E+000	0.00000E+000	8	...........	1489.84
	88	435	1.60067E+000	5.79006E-005	0.00000E+000	1.60008E+000	0.00000E+000	8	...........	1489.88
	89	440	1.60067E+000	5.77795E-005	0.00000E+000	1.60008E+000	0.00000E+000	8	...........	1489.88
	90	445	1.60066E+000	5.79035E-005	0.00000E+000	1.60008E+000	0.00000E+000	8	...........	1489.88
	91	450	1.60066E+000	5.76085E-005	0.00000E+000	1.60008E+000	0.00000E+000	8	...........	1489.88
	92	455	1.60066E+000	5.97877E-005	0.00000E+000	1.60008E+000	0.00000E+000	8	...........	1489.88
	93	460	1.60067E+000	6.07597E-005	0.00000E+000	1.60008E+000	0.00000E+000	8	...........	1489.88
	94	465	1.60067E+000	6.08535E-005	0.00000E+000	1.60008E+000	0.00000E+000	8	...........	1489.88
	95	470	1.60066E+000	6.10022E-005	0.00000E+000	1.60008E+000	0.00000E+000	8	...........	1489.88
	96	475	1.60067E+000	6.09624E-005	0.00000E+000	1.60008E+000	0.00000E+000	8	...........	1489.88
	97	480	1.60067E+000	6.08571E-005	0.00000E+000	1.60008E+000	0.00000E+000	8	...........	1489.88
	98	485	1.60067E+000	6.09108E-005	0.00000E+000	1.60008E+000	0.00000E+000	8	...........	1489.88
	99	490	1.60067E+000	6.27081E-005	0.00000E+000	1.60008E+000	0.00000E+000	8	...........	1489.88
	100	495	1.60066E+000	6.40892E-005	0.00000E+000	1.60008E+000	0.00000E+000	8	...........	1489.88
	101	500	1.60067E+000	6.43776E-005	0.00000E+000	1.60008E+000	0.00000E+000	8	...........	1489.88
	102	505	1.60067E+000	6.43080E-005	0.00000E+000	1.60008E+000	0.00000E+000	8	...........	1489.88
	103	510	1.60067E+000	6.44156E-005	0.00000E+000	1.60008E+000	0.00000E+000	8	...........	1489.88
	104	515	1.60066E+000	6.43820E-005	0.00000E+000	1.60008E+000	0.00000E+000	8	...........	1489.88
	105	520	1.60067E+000	6.43200E-005	0.00000E+000	1.60008E+000	0.00000E+000	8	...........	1489.88
	106	525	1.60067E+000	6.43362E-005	0.00000E+000	1.60008E+000	0.00000E+000	8	...........	1489.88
	107	530	1.60066E+000	6.43480E-005	0.00000E+000	1.60008E+000	0.00000E+000	8	...........	1489.88
	108	535	1.60067E+000	6.43897E-005	0.00000E+000	1.60008E+000	0.00000E+000	8	...........	1489.88
	109	540	1.60067E+000	6.44456E-005	0.00000E+000	1.60008E+000	0.00000E+000	8	...........	1489.88
	110	545	1.60067E+000	6.44356E-005	0.00000E+000	1.60008E+000	0.00000E+000	8	...........	1489.79
	111	550	1.60067E+000	6.44016E-005	0.00000E+000	1.60008E+000	0.00000E+000	8	...........	1489.88
	112	555	1.60067E+000	6.43475E-005	0.00000E+000	1.60008E+000	0.00000E+000	8	...........	1489.88
	113	560	1.60067E+000	6.43496E-005	0.00000E+000	1.60008E+000	0.00000E+000	8	...........	1489.88
	114	565	1.60067E+000	6.42577E-005	0.00000E+000	1.60008E+000	0.00000E+000	8	...........	1489.84
	115	570	1.60067E+000	6.42293E-005	0.00000E+000	1.60008E+000	0.00000E+000	8	...........	1489.88
	116	575	1.60067E+000	6.42059E-005	0.00000E+000	1.60008E+000	0.00000E+000	8	...........	1489.84
	117	580	1.60067E+000	6.42095E-005	0.00000E+000	1.60008E+000	0.00000E+000	8	...........	1489.84
	118	585	1.60067E+000	6.41383E-005	0.00000E+000	1.60008E+000	0.00000E+000	8	...........	1489.88
	119	590	1.60067E+000	6.41583E-005	0.00000E+000	1.60008E+000	0.00000E+000	8	...........	1489.88
	120	595	1.60067E+000	6.41457E-005	0.00000E+000	1.60008E+000	0.00000E+000	8	...........	1489.88
	121	600	1.60067E+000	6.40987E-005	0.00000E+000	1.60008E+000	0.00000E+000	8	...........	1489.84
	122	605	1.60068E+000	6.40437E-005	0.00000E+000	1.60008E+000	0.00000E+000	8	...........	1489.88
	123	610	1.60067E+000	6.38138E-005	0.00000E+000	1.60008E+000	0.00000E+000	8	...........	1489.88
	124	615	1.60067E+000	6.38124E-005	0.00000E+000	1.60008E+000	0.00000E+000	8	...........	1489.88
	125	620	1.60067E+000	6.36998E-005	0.00000E+000	1.60008E+000	0.00000E+000	8	...........	1489.88
	126	625	1.60067E+000	6.37962E-005	0.00000E+000	1.60008E+000	0.00000E+000	8	...........	1489.88
	127	630	1.60067E+000	6.36989E-005	0.00000E+000	1.60008E+000	0.00000E+000	8	...........	1489.88
	128	635	1.60067E+000	6.37385E-005	0.00000E+000	1.60008E+000	0.00000E+000	8	...........	1489.88
	129	640	1.60067E+000	6.38197E-005	0.00000E+000	1.60008E+000	0.00000E+000	8	...........	1489.88
	130	645	1.60067E+000	6.37415E-005	0.00000E+000	1.60008E+000	0.00000E+000	8	...........	1489.88
	131	650	1.60067E+000	6.37520E-005	0.00000E+000	1.60008E+000	0.00000E+000	8	...........	1489.88
	132	655	1.60067E+000	6.37400E-005	0.00000E+000	1.60008E+000	0.00000E+000	8	...........	1489.88
	133	660	1.60066E+000	6.36495E-005	0.00000E+000	1.60008E+000	0.00000E+000	8	...........	1489.88
	134	665	1.60067E+000	6.37050E-005	0.00000E+000	1.60008E+000	0.00000E+000	8	...........	1489.88
	135	670	1.60067E+000	6.36665E-005	0.00000E+000	1.60008E+000	0.00000E+000	8	...........	1489.88
	136	675	1.60066E+000	6.36615E-005	0.00000E+000	1.60008E+000	0.00000E+000	8	...........	1489.88
	137	680	1.60066E+000	6.35928E-005	0.00000E+000	1.60008E+000	0.00000E+000	8	...........	1489.88
	138	685	1.60067E+000	6.35927E-005	0.00000E+000	1.60008E+000	0.00000E+000	8	...........	1489.88
	139	690	1.60066E+000	6.35691E-005	0.00000E+000	1.60008E+000	0.00000E+000	8	...........	1489.88
	140	695	1.60066E+000	6.34784E-005	0.00000E+000	1.60008E+000	0.00000E+000	8	...........	1489.88
	141	700	1.60066E+000	6.33930E-005	0.00000E+000	1.60008E+000	0.00000E+000	8	...........	1489.88
	142	705	1.60067E+000	6.34736E-005	0.00000E+000	1.60008E+000	0.00000E+000	8	...........	1489.84
	143	710	1.60066E+000	6.33829E-005	0.00000E+000	1.60008E+000	0.00000E+000	8	...........	1489.88
	144	715	1.60067E+000	6.33179E-005	0.00000E+000	1.60008E+000	0.00000E+000	8	...........	1489.83
	145	720	1.60067E+000	6.32565E-005	0.00000E+000	1.60008E+000	0.00000E+000	8	...........	1489.88
	146	725	1.60068E+000	6.31543E-005	0.00000E+000	1.60008E+000	0.00000E+000	8	...........	1489.88
	147	730	1.60067E+000	6.36550E-005	0.00000E+000	1.60008E+000	0.00000E+000	8	...........	1489.83
	148	735	1.60067E+000	6.39536E-005	0.00000E+000	1.60008E+000	0.00000E+000	8	...........	1489.88
	149	740	1.60067E+000	6.40408E-005	0.00000E+000	1.60008E+000	0.00000E+000	8	...........	1489.84
	150	745	1.60067E+000	6.40671E-005	0.00000E+000	1.60008E+000	0.00000E+000	8	...........	1489.88
	151	750	1.60067E+000	6.41174E-005	0.00000E+000	1.60008E+000	0.00000E+000	8	...........	1489.79
	152	755	1.60067E+000	6.39797E-005	0.00000E+000	1.60008E+000	0.00000E+000	8	...........	1489.84
	153	760	1.60066E+000	6.39436E-005	0.00000E+000	1.60008E+000	0.00000E+000	8	...........	1489.83
	154	765	1.60067E+000	6.40275E-005	0.00000E+000	1.60008E+000	0.00000E+000	8	...........	1489.83
	155	770	1.60067E+000	6.40008E-005	0.00000E+000	1.60008E+000	0.00000E+000	8	...........	1489.88
	156	775	1.60067E+000	6.39303E-005	0.00000E+000	1.60008E+000	0.00000E+000	8	...........	1489.79
	157	780	1.60066E+000	6.38153E-005	0.00000E+000	1.60008E+000	0.00000E+000	8	...........	1489.84
	158	785	1.60067E+000	6.37420E-005	0.00000E+000	1.60008E+000	0.00000E+000	8	...........	1489.88
	159	790	1.60067E+000	6.37299E-005	0.00000E+000	1.60008E+000	0.00000E+000	8	...........	1489.88
	160	795	1.60066E+000	6.37154E-005	0.00000E+000	1.60008E+000	0.00000E+000	8	...........	1489.83
	161	800	1.60067E+000	6.37776E-005	0.00000E+000	1.60008E+000	0.00000E+000	8	...........	1489.83
	162	805	1.60067E+000	6.35505E-005	0.00000E+000	1.60008E+000	0.00000E+000	8	...........	1489.84
	163	810	1.60067E+000	6.36074E-005	0.00000E+000	1.60008E+000	0.00000E+000	8	...........	1489.88
	164	815	1.60067E+000	6.35626E-005	0.00000E+000	1.60008E+000	0.00000E+000	8	...........	1489.88
	165	820	1.60066E+000	6.35088E-005	0.00000E+000	1.60008E+000	0.00000E+000	8	...........	1489.88
	166	825	1.60067E+000	6.35358E-005	0.00000E+000	1.60008E+000	0.00000E+000	8	...........	1489.88
	167	830	1.60066E+000	6.35009E-005	0.00000E+000	1.60008E+000	0.00000E+000	8	...........	1489.88
	168	835	1.60066E+000	6.34885E-005	0.00000E+000	1.60008E+000	0.00000E+000	8	...........	1489.88
	169	840	1.60067E+000	6.35371E-005	0.00000E+000	1.60008E+000	0.00000E+000	8	...........	1489.83
	170	845	1.60067E+000	6.34823E-005	0.00000E+000	1.60008E+000	0.00000E+000	8	...........	1489.84
	171	850	1.60066E+000	6.34340E-005	0.00000E+000	1.60008E+000	0.00000E+000	8	...........	1489.88
	172	855	1.60067E+000	6.34197E-005	0.00000E+000	1.60008E+000	0.00000E+000	8	...........	1489.88
	173	860	1.60067E+000	6.34248E-005	0.00000E+000	1.60008E+000	0.00000E+000	8	...........	1489.88
	174	865	1.60067E+000	6.33530E-005	0.00000E+000	1.60008E+000	0.00000E+000	8	...........	1489.88
	175	870	1.60067E+000	6.33749E-005	0.00000E+000	1.60008E+000	0.00000E+000	8	...........	1489.83
	176	875	1.60066E+000	6.32749E-005	0.00000E+000	1.60008E+000	0.00000E+000	8	...........	1489.83
	177	880	1.60066E+000	6.33559E-005	0.00000E+000	1.60008E+000	0.00000E+000	8	...........	1489.84
	178	885	1.60067E+000	6.32413E-005	0.00000E+000	1.60008E+000	0.00000E+000	8	...........	1489.83
	179	890	1.60066E+000	6.31904E-005	0.00000E+000	1.60008E+000	0.00000E+000	8	...........	1489.84
	180	895	1.60066E+000	6.32596E-005	0.00000E+000	1.60008E+000	0.00000E+000	8	...........	1489.88
	181	900	1.60066E+000	6.32011E-005	0.00000E+000	1.60008E+000	0.00000E+000	8	...........	1489.88
	182	905	1.60067E+000	6.31044E-005	0.00000E+000	1.60008E+000	0.00000E+000	8	...........	1489.88
	183	910	1.60066E+000	6.30976E-005	0.00000E+000	1.60008E+000	0.00000E+000	8	...........	1489.88
	184	915	1.60067E+000	6.44824E-005	0.00000E+000	1.60008E+000	0.00000E+000	8	...........	1489.83
	185	920	1.60066E+000	6.29334E-005	0.00000E+000	1.60008E+000	0.00000E+000	8	...........	1489.88
	186	925	1.60066E+000	6.29602E-005	0.00000E+000	1.60008E+000	0.00000E+000	8	...........	1489.84
	187	930	1.60066E+000	6.30077E-005	0.00000E+000	1.60008E+000	0.00000E+000	8	...........	1489.88
	188	935	1.60066E+000	6.29593E-005	0.00000E+000	1.60008E+000	0.00000E+000	8	...........	1489.83
	189	940	1.60067E+000	6.29625E-005	0.00000E+000	1.60008E+000	0.00000E+000	8	...........	1489.84
	190	945	1.60066E+000	6.29224E-005	0.00000E+000	1.60008E+000	0.00000E+000	8	...........	1489.88
	191	950	1.60067E+000	6.28887E-005	0.00000E+000	1.60008E+000	0.00000E+000	8	...........	1489.88
	192	955	1.60067E+000	6.28106E-005	0.00000E+000	1.60008E+000	0.00000E+000	8	...........	1489.88
	193	960	1.60066E+000	6.42947E-005	0.00000E+000	1.60008E+000	0.00000E+000	8	...........	1489.88
	194	965	1.60066E+000	6.45680E-005	0.00000E+000	1.60008E+000	0.00000E+000	8	...........	1489.88
	195	970	1.60067E+000	6.45560E-005	0.00000E+000	1.60008E+000	0.00000E+000	8	...........	1489.88
	196	975	1.60066E+000	6.46273E-005	0.00000E+000	1.60008E+000	0.00000E+000	8	...........	1489.88
	197	980	1.60066E+000	6.47461E-005	0.00000E+000	1.60008E+000	0.00000E+000	8	...........	1489.88
	198	985	1.60066E+000	6.46018E-005	0.00000E+000	1.60008E+000	0.00000E+000	8	...........	1489.84
	199	990	1.60066E+000	6.46666E-005	0.00000E+000	1.60008E+000	0.00000E+000	8	...........	1489.88
	200	995	1.60067E+000	6.46842E-005	0.00000E+000	1.60008E+000	0.00000E+000	8	...........	1489.88
	201	1000	1.60067E+000	6.46652E-005	0.00000E+000	1.60008E+000	0.00000E+000	8	...........	1489.88
	202	1005	1.60066E+000	6.46170E-005	0.00000E+000	1.60008E+000	0.00000E+000	8	...........	1489.84
	203	1010	1.60067E+000	6.44857E-005	0.00000E+000	1.60008E+000	0.00000E+000	8	...........	1489.83
	204	1015	1.60067E+000	6.44738E-005	0.00000E+000	1.60008E+000	0.00000E+000	8	...........	1489.88
	205	1020	1.60067E+000	6.44325E-005	0.00000E+000	1.60008E+000	0.00000E+000	8	...........	1489.88
	206	1025	1.60066E+000	6.44819E-005	0.00000E+000	1.60008E+000	0.00000E+000	8	...........	1489.88
	207	1030	1.60067E+000	6.45244E-005	0.00000E+000	1.60008E+000	0.00000E+000	8	...........	1489.88
	208	1035	1.60067E+000	6.44205E-005	0.00000E+000	1.60008E+000	0.00000E+000	8	...........	1489.88
	209	1040	1.60067E+000	6.44128E-005	0.00000E+000	1.60008E+000	0.00000E+000	8	...........	1489.83
	210	1045	1.60067E+000	6.44022E-005	0.00000E+000	1.60008E+000	0.00000E+000	8	...........	1489.88
	211	1050	1.60066E+000	6.44071E-005	0.00000E+000	1.60008E+000	0.00000E+000	8	...........	1489.88
	212	1055	1.60067E+000	6.43787E-005	0.00000E+000	1.60008E+000	0.00000E+000	8	...........	1489.88
	213	1060	1.60067E+000	6.42507E-005	0.00000E+000	1.60008E+000	0.00000E+000	8	...........	1489.88
	214	1065	1.60066E+000	6.42842E-005	0.00000E+000	1.60008E+000	0.00000E+000	8	...........	1489.88
	215	1070	1.60066E+000	6.41859E-005	0.00000E+000	1.60008E+000	0.00000E+000	8	...........	1489.79
	216	1075	1.60067E+000	6.41015E-005	0.00000E+000	1.60008E+000	0.00000E+000	8	...........	1489.83
	217	1080	1.60066E+000	6.41381E-005	0.00000E+000	1.60008E+000	0.00000E+000	8	...........	1489.88
	218	1085	1.60066E+000	6.41224E-005	0.00000E+000	1.60008E+000	0.00000E+000	8	...........	1489.88
	219	1090	1.60066E+000	6.42455E-005	0.00000E+000	1.60008E+000	0.00000E+000	8	...........	1489.83
	220	1095	1.60066E+000	6.41976E-005	0.00000E+000	1.60008E+000	0.00000E+000	8	...........	1489.88
	221	1100	1.60067E+000	6.41460E-005	0.00000E+000	1.60008E+000	0.00000E+000	8	...........	1489.88
	222	1105	1.60067E+000	6.42415E-005	0.00000E+000	1.60008E+000	0.00000E+000	8	...........	1489.88
	223	1110	1.60066E+000	6.40686E-005	0.00000E+000	1.60008E+000	0.00000E+000	8	...........	1489.88
	224	1115	1.60067E+000	6.41337E-005	0.00000E+000	1.60008E+000	0.00000E+000	8	...........	1489.88
	225	1120	1.60067E+000	6.40346E-005	0.00000E+000	1.60008E+000	0.00000E+000	8	...........	1489.88
	226	1125	1.60066E+000	6.40579E-005	0.00000E+000	1.60008E+000	0.00000E+000	8	...........	1489.88
	227	1130	1.60066E+000	6.39816E-005	0.00000E+000	1.60008E+000	0.00000E+000	8	...........	1489.88
	228	1135	1.60066E+000	6.39040E-005	0.00000E+000	1.60008E+000	0.00000E+000	8	...........	1489.88
	229	1140	1.60067E+000	6.39148E-005	0.00000E+000	1.60008E+000	0.00000E+000	8	...........	1489.88
	230	1145	1.60066E+000	6.37954E-005	0.00000E+000	1.60008E+000	0.00000E+000	8	...........	1489.88
	231	1150	1.60066E+000	6.39574E-005	0.00000E+000	1.60008E+000	0.00000E+000	8	...........	1489.88
	232	1155	1.60066E+000	6.38183E-005	0.00000E+000	1.60008E+000	0.00000E+000	8	...........	1489.88
	233	1160	1.60067E+000	6.37144E-005	0.00000E+000	1.60008E+000	0.00000E+000	8	...........	1489.88
	234	1165	1.60067E+000	6.37401E-005	0.00000E+000	1.60008E+000	0.00000E+000	8	...........	1489.88
	235	1170	1.60066E+000	6.37013E-005	0.00000E+000	1.60008E+000	0.00000E+000	8	...........	1489.88
	236	1175	1.60067E+000	6.36587E-005	0.00000E+000	1.60008E+000	0.00000E+000	8	...........	1489.88
	237	1180	1.60066E+000	6.36847E-005	0.00000E+000	1.60008E+000	0.00000E+000	8	...........	1489.84
	238	1185	1.60067E+000	6.36750E-005	0.00000E+000	1.60008E+000	0.00000E+000	8	...........	1489.88
	239	1190	1.60066E+000	6.39317E-005	0.00000E+000	1.60008E+000	0.00000E+000	8	...........	1489.88
	240	1195	1.60067E+000	6.40742E-005	0.00000E+000	1.60008E+000	0.00000E+000	8	...........	1489.88
	241	1200	1.60066E+000	6.41262E-005	0.00000E+000	1.60008E+000	0.00000E+000	8	...........	1489.88
	242	1205	1.60066E+000	6.40327E-005	0.00000E+000	1.60008E+000	0.00000E+000	8	...........	1489.88
	243	1210	1.60066E+000	6.39852E-005	0.00000E+000	1.60008E+000	0.00000E+000	8	...........	1489.88
	244	1215	1.60066E+000	6.39610E-005	0.00000E+000	1.60008E+000	0.00000E+000	8	...........	1489.88
	245	1220	1.60066E+000	6.39183E-005	0.00000E+000	1.60008E+000	0.00000E+000	8	...........	1489.88
	246	1225	1.60067E+000	6.38932E-005	0.00000E+000	1.60008E+000	0.00000E+000	8	...........	1489.88
	247	1230	1.60066E+000	6.39076E-005	0.00000E+000	1.60008E+000	0.00000E+000	8	...........	1489.88
	248	1235	1.60067E+000	6.38411E-005	0.00000E+000	1.60008E+000	0.00000E+000	8	...........	1489.88
	249	1240	1.60067E+000	6.37762E-005	0.00000E+000	1.60008E+000	0.00000E+000	8	...........	1489.88
	250	1245	1.60066E+000	6.37429E-005	0.00000E+000	1.60008E+000	0.00000E+000	8	...........	1489.88
	251	1250	1.60066E+000	6.37410E-005	0.00000E+000	1.60008E+000	0.00000E+000	8	...........	1489.88
	252	1255	1.60066E+000	6.37823E-005	0.00000E+000	1.60008E+000	0.00000E+000	8	...........	1489.88
	253	1260	1.60067E+000	6.35838E-005	0.00000E+000	1.60008E+000	0.00000E+000	8	...........	1489.88
	254	1265	1.60066E+000	6.36418E-005	0.00000E+000	1.60008E+000	0.00000E+000	8	...........	1489.88
	255	1270	1.60066E+000	6.36652E-005	0.00000E+000	1.60008E+000	0.00000E+000	8	...........	1489.88
	256	1275	1.60067E+000	6.35607E-005	0.00000E+000	1.60008E+000	0.00000E+000	8	...........	1489.88
	257	1280	1.60067E+000	6.35311E-005	0.00000E+000	1.60008E+000	0.00000E+000	8	...........	1489.88
	258	1285	1.60067E+000	6.34302E-005	0.00000E+000	1.60008E+000	0.00000E+000	8	...........	1489.88
	259	1290	1.60066E+000	6.34238E-005	0.00000E+000	1.60008E+000	0.00000E+000	8	...........	1489.88
	260	1295	1.60066E+000	6.33942E-005	0.00000E+000	1.60008E+000	0.00000E+000	8	...........	1489.88
	261	1300	1.60066E+000	6.34254E-005	0.00000E+000	1.60008E+000	0.00000E+000	8	...........	1489.88
	262	1305	1.60067E+000	6.34507E-005	0.00000E+000	1.60008E+000	0.00000E+000	8	...........	1489.88
	263	1310	1.60066E+000	6.34437E-005	0.00000E+000	1.60008E+000	0.00000E+000	8	...........	1489.88
	264	1315	1.60066E+000	6.33011E-005	0.00000E+000	1.60008E+000	0.00000E+000	8	...........	1489.88
	265	1320	1.60066E+000	6.32471E-005	0.00000E+000	1.60008E+000	0.00000E+000	8	...........	1489.88
	266	1325	1.60066E+000	6.32649E-005	0.00000E+000	1.60008E+000	0.00000E+000	8	...........	1489.88
	267	1330	1.60067E+000	6.32193E-005	0.00000E+000	1.60008E+000	0.00000E+000	8	...........	1489.88
	268	1335	1.60067E+000	6.31999E-005	0.00000E+000	1.60008E+000	0.00000E+000	8	...........	1489.88
	269	1340	1.60066E+000	6.32217E-005	0.00000E+000	1.60008E+000	0.00000E+000	8	...........	1489.88
	270	1345	1.60066E+000	6.31684E-005	0.00000E+000	1.60008E+000	0.00000E+000	8	...........	1489.88
	271	1350	1.60066E+000	6.31292E-005	0.00000E+000	1.60008E+000	0.00000E+000	8	...........	1489.84
	272	1355	1.60066E+000	6.30821E-005	0.00000E+000	1.60008E+000	0.00000E+000	8	...........	1489.88
	273	1360	1.60066E+000	6.30186E-005	0.00000E+000	1.60008E+000	0.00000E+000	8	...........	1489.88
	274	1365	1.60066E+000	6.29217E-005	0.00000E+000	1.60008E+000	0.00000E+000	8	...........	1489.88
	275	1370	1.60067E+000	6.28736E-005	0.00000E+000	1.60008E+000	0.00000E+000	8	...........	1489.88
	276	1375	1.60067E+000	6.28262E-005	0.00000E+000	1.60008E+000	0.00000E+000	8	...........	1489.88
	277	1380	1.60067E+000	6.28592E-005	0.00000E+000	1.60008E+000	0.00000E+000	8	...........	1489.88
	278	1385	1.60067E+000	6.27470E-005	0.00000E+000	1.60008E+000	0.00000E+000	8	...........	1489.88
	279	1390	1.60067E+000	6.27862E-005	0.00000E+000	1.60008E+000	0.00000E+000	8	...........	1489.88
	280	1395	1.60067E+000	6.27431E-005	0.00000E+000	1.60008E+000	0.00000E+000	8	...........	1489.88
	281	1400	1.60066E+000	6.26426E-005	0.00000E+000	1.60008E+000	0.00000E+000	8	...........	1489.88
	282	1405	1.60066E+000	6.25817E-005	0.00000E+000	1.60008E+000	0.00000E+000	8	...........	1489.88
	283	1410	1.60067E+000	6.26602E-005	0.00000E+000	1.60008E+000	0.00000E+000	8	...........	1489.88
	284	1415	1.60067E+000	6.24050E-005	0.00000E+000	1.60008E+000	0.00000E+000	8	...........	1489.88
	285	1420	1.60067E+000	6.23049E-005	0.00000E+000	1.60008E+000	0.00000E+000	8	...........	1489.88
	286	1425	1.60067E+000	6.25497E-005	0.00000E+000	1.60008E+000	0.00000E+000	8	...........	1489.88
	287	1430	1.60067E+000	6.23367E-005	0.00000E+000	1.60008E+000	0.00000E+000	8	...........	1489.88
	288	1435	1.60066E+000	6.25387E-005	0.00000E+000	1.60008E+000	0.00000E+000	8	...........	1489.88
	289	1440	1.60066E+000	6.22254E-005	0.00000E+000	1.60008E+000	0.00000E+000	8	...........	1489.88
	290	1445	1.60067E+000	6.20336E-005	0.00000E+000	1.60008E+000	0.00000E+000	8	...........	1489.88
	291	1450	1.60066E+000	6.20975E-005	0.00000E+000	1.60008E+000	0.00000E+000	8	...........	1489.88
	292	1455	1.60066E+000	6.21200E-005	0.00000E+000	1.60008E+000	0.00000E+000	8	...........	1489.88
	293	1460	1.60067E+000	6.20176E-005	0.00000E+000	1.60008E+000	0.00000E+000	8	...........	1489.88
	294	1465	1.60067E+000	6.19869E-005	0.00000E+000	1.60008E+000	0.00000E+000	8	...........	1489.88
	295	1470	1.60067E+000	6.20298E-005	0.00000E+000	1.60008E+000	0.00000E+000	8	...........	1489.88
	296	1475	1.60067E+000	6.19664E-005	0.00000E+000	1.60008E+000	0.00000E+000	8	...........	1489.88
	297	1480	1.60067E+000	6.19139E-005	0.00000E+000	1.60008E+000	0.00000E+000	8	...........	1489.88
	298	1485	1.60066E+000	6.19958E-005	0.00000E+000	1.60008E+000	0.00000E+000	8	...........	1489.88
	299	1490	1.60067E+000	6.19438E-005	0.00000E+000	1.60008E+000	0.00000E+000	8	...........	1489.88
	300	1495	1.60067E+000	6.18437E-005	0.00000E+000	1.60008E+000	0.00000E+000	8	...........	1489.88
	301	1500	1.60066E+000	6.18106E-005	0.00000E+000	1.60008E+000	0.00000E+000	8	...........	1489.88
	302	1505	1.60066E+000	6.17606E-005	0.00000E+000	1.60008E+000	0.00000E+000	8	...........	1489.88
	303	1510	1.60066E+000	6.18200E-005	0.00000E+000	1.60008E+000	0.00000E+000	8	...........	1489.88
	304	1515	1.60066E+000	6.18748E-005	0.00000E+000	1.60008E+000	0.00000E+000	8	...........	1489.88
	305	1520	1.60066E+000	6.18996E-005	0.00000E+000	1.60008E+000	0.00000E+000	8	...........	1489.88
	306	1525	1.60067E+000	6.18812E-005	0.00000E+000	1.60008E+000	0.00000E+000	8	...........	1489.88
	307	1530	1.60066E+000	6.19307E-005	0.00000E+000	1.60008E+000	0.00000E+000	8	...........	1489.88
	308	1535	1.60066E+000	6.20943E-005	0.00000E+000	1.60008E+000	0.00000E+000	8	...........	1489.88
	309	1540	1.60066E+000	6.20019E-005	0.00000E+000	1.60008E+000	0.00000E+000	8	...........	1489.88
	310	1545	1.60067E+000	6.18144E-005	0.00000E+000	1.60008E+000	0.00000E+000	8	...........	1489.88
	311	1550	1.60066E+000	6.18094E-005	0.00000E+000	1.60008E+000	0.00000E+000	8	...........	1489.88
	312	1555	1.60066E+000	6.17885E-005	0.00000E+000	1.60008E+000	0.00000E+000	8	...........	1489.88
	313	1560	1.60067E+000	6.17695E-005	0.00000E+000	1.60008E+000	0.00000E+000	8	...........	1489.84
	314	1565	1.60067E+000	6.18009E-005	0.00000E+000	1.60008E+000	0.00000E+000	8	...........	1489.88
	315	1570	1.60067E+000	6.17855E-005	0.00000E+000	1.60008E+000	0.00000E+000	8	...........	1489.83
	316	1575	1.60066E+000	6.17384E-005	0.00000E+000	1.60008E+000	0.00000E+000	8	...........	1489.88
	317	1580	1.60067E+000	6.16441E-005	0.00000E+000	1.60008E+000	0.00000E+000	8	...........	1489.88
	318	1585	1.60067E+000	6.15668E-005	0.00000E+000	1.60008E+000	0.00000E+000	8	...........	1489.88
	319	1590	1.60067E+000	6.15459E-005	0.00000E+000	1.60008E+000	0.00000E+000	8	...........	1489.88
	320	1595	1.60067E+000	6.15602E-005	0.00000E+000	1.60008E+000	0.00000E+000	8	...........	1489.88
	321	1600	1.60067E+000	6.13686E-005	0.00000E+000	1.60008E+000	0.00000E+000	8	...........	1489.88
	322	1605	1.60067E+000	6.14705E-005	0.00000E+000	1.60008E+000	0.00000E+000	8	...........	1489.88
	323	1610	1.60067E+000	6.14259E-005	0.00000E+000	1.60008E+000	0.00000E+000	8	...........	1489.83
	324	1615	1.60067E+000	6.14340E-005	0.00000E+000	1.60008E+000	0.00000E+000	8	...........	1489.88
	325	1620	1.60066E+000	6.14519E-005	0.00000E+000	1.60008E+000	0.00000E+000	8	...........	1489.88
	326	1625	1.60066E+000	6.14032E-005	0.00000E+000	1.60008E+000	0.00000E+000	8	...........	1489.88
	327	1630	1.60067E+000	6.13370E-005	0.00000E+000	1.60008E+000	0.00000E+000	8	...........	1489.84
	328	1635	1.60067E+000	6.12822E-005	0.00000E+000	1.60008E+000	0.00000E+000	8	...........	1489.88
	329	1640	1.60066E+000	6.12240E-005	0.00000E+000	1.60008E+000	0.00000E+000	8	...........	1489.88
	330	1645	1.60066E+000	6.12589E-005	0.00000E+000	1.60008E+000	0.00000E+000	8	...........	1489.88
	331	1650	1.60066E+000	6.05788E-005	0.00000E+000	1.60008E+000	0.00000E+000	8	...........	1489.88
	332	1655	1.60067E+000	5.82166E-005	0.00000E+000	1.60008E+000	0.00000E+000	8	...........	1489.88
	333	1660	1.60067E+000	5.82832E-005	0.00000E+000	1.60008E+000	0.00000E+000	8	...........	1489.88
	334	1665	1.60067E+000	5.89282E-005	0.00000E+000	1.60008E+000	0.00000E+000	8	...........	1489.88
	335	1670	1.60067E+000	5.82483E-005	0.00000E+000	1.60008E+000	0.00000E+000	8	...........	1489.88
	336	1675	1.60067E+000	5.86398E-005	0.00000E+000	1.60008E+000	0.00000E+000	8	...........	1489.88
	337	1680	1.60066E+000	5.91436E-005	0.00000E+000	1.60008E+000	0.00000E+000	8	...........	1489.88
	338	1685	1.60066E+000	5.97193E-005	0.00000E+000	1.60008E+000	0.00000E+000	8	...........	1489.88
	339	1690	1.60067E+000	6.05942E-005	0.00000E+000	1.60008E+000	0.00000E+000	8	...........	1489.88
	340	1695	1.60066E+000	6.03754E-005	0.00000E+000	1.60008E+000	0.00000E+000	8	...........	1489.84
	341	1700	1.60067E+000	6.10099E-005	0.00000E+000	1.60008E+000	0.00000E+000	8	...........	1489.88
	342	1705	1.60067E+000	5.89478E-005	0.00000E+000	1.60008E+000	0.00000E+000	8	...........	1489.88
	343	1710	1.60067E+000	5.94382E-005	0.00000E+000	1.60008E+000	0.00000E+000	8	...........	1489.88
	344	1715	1.60067E+000	5.98999E-005	0.00000E+000	1.60008E+000	0.00000E+000	8	...........	1489.88
	345	1720	1.60066E+000	6.01974E-005	0.00000E+000	1.60008E+000	0.00000E+000	8	...........	1489.88
	346	1725	1.60067E+000	6.02572E-005	0.00000E+000	1.60008E+000	0.00000E+000	8	...........	1489.88
	347	1730	1.60067E+000	6.02683E-005	0.00000E+000	1.60008E+000	0.00000E+000	8	...........	1489.88
	348	1735	1.60066E+000	6.01459E-005	0.00000E+000	1.60008E+000	0.00000E+000	8	...........	1489.88
	349	1740	1.60066E+000	6.02385E-005	0.00000E+000	1.60008E+000	0.00000E+000	8	...........	1489.88
	350	1745	1.60066E+000	6.01426E-005	0.00000E+000	1.60008E+000	0.00000E+000	8	...........	1489.88
	351	1750	1.60067E+000	5.98631E-005	0.00000E+000	1.60008E+000	0.00000E+000	8	...........	1489.88
	352	1755	1.60067E+000	5.98627E-005	0.00000E+000	1.60008E+000	0.00000E+000	8	...........	1489.88
	353	1760	1.60067E+000	6.04258E-005	0.00000E+000	1.60008E+000	0.00000E+000	8	...........	1489.88
	354	1765	1.60067E+000	5.88708E-005	0.00000E+000	1.60008E+000	0.00000E+000	8	...........	1489.88
	355	1770	1.60067E+000	5.93115E-005	0.00000E+000	1.60008E+000	0.00000E+000	8	...........	1489.88
	356	1775	1.60067E+000	6.12885E-005	0.00000E+000	1.60008E+000	0.00000E+000	8	...........	1489.83
	357	1780	1.60067E+000	5.96760E-005	0.00000E+000	1.60008E+000	0.00000E+000	8	...........	1489.88
	358	1785	1.60067E+000	5.85224E-005	0.00000E+000	1.60008E+000	0.00000E+000	8	...........	1489.84
	359	1790	1.60066E+000	6.00419E-005	0.00000E+000	1.60008E+000	0.00000E+000	8	...........	1489.88
	360	1795	1.60067E+000	6.01283E-005	0.00000E+000	1.60008E+000	0.00000E+000	8	...........	1489.83
	361	1800	1.60067E+000	5.85537E-005	0.00000E+000	1.60008E+000	0.00000E+000	8	...........	1489.88
	362	1805	1.60067E+000	5.86466E-005	0.00000E+000	1.60008E+000	0.00000E+000	8	...........	1489.88
	363	1810	1.60067E+000	5.89954E-005	0.00000E+000	1.60008E+000	0.00000E+000	8	...........	1489.88
	364	1815	1.60067E+000	5.90210E-005	0.00000E+000	1.60008E+000	0.00000E+000	8	...........	1489.88
	365	1820	1.60067E+000	5.92126E-005	0.00000E+000	1.60008E+000	0.00000E+000	8	...........	1489.88
	366	1825	1.60066E+000	5.94635E-005	0.00000E+000	1.60008E+000	0.00000E+000	8	...........	1489.88
	367	1830	1.60067E+000	5.93541E-005	0.00000E+000	1.60008E+000	0.00000E+000	8	...........	1489.88
	368	1835	1.60066E+000	5.93654E-005	0.00000E+000	1.60008E+000	0.00000E+000	8	...........	1489.88
	369	1840	1.60066E+000	5.94071E-005	0.00000E+000	1.60008E+000	0.00000E+000	8	...........	1489.88
	370	1845	1.60066E+000	5.96242E-005	0.00000E+000	1.60008E+000	0.00000E+000	8	...........	1489.83
	371	1850	1.60066E+000	5.96428E-005	0.00000E+000	1.60008E+000	0.00000E+000	8	...........	1489.88
	372	1855	1.60067E+000	5.99190E-005	0.00000E+000	1.60008E+000	0.00000E+000	8	...........	1489.88
	373	1860	1.60066E+000	5.99003E-005	0.00000E+000	1.60008E+000	0.00000E+000	8	...........	1489.88
	374	1865	1.60067E+000	5.99264E-005	0.00000E+000	1.60008E+000	0.00000E+000	8	...........	1489.88
	375	1870	1.60066E+000	5.97577E-005	0.00000E+000	1.60008E+000	0.00000E+000	8	...........	1489.88
	376	1875	1.60066E+000	5.98257E-005	0.00000E+000	1.60008E+000	0.00000E+000	8	...........	1489.84
	377	1880	1.60067E+000	5.98298E-005	0.00000E+000	1.60008E+000	0.00000E+000	8	...........	1489.88
	378	1885	1.60066E+000	5.95848E-005	0.00000E+000	1.60008E+000	0.00000E+000	8	...........	1489.88
	379	1890	1.60066E+000	5.97293E-005	0.00000E+000	1.60008E+000	0.00000E+000	8	...........	1489.88
	380	1895	1.60067E+000	5.96984E-005	0.00000E+000	1.60008E+000	0.00000E+000	8	...........	1489.88
	381	1900	1.60067E+000	5.96069E-005	0.00000E+000	1.60008E+000	0.00000E+000	8	...........	1489.88
	382	1905	1.60067E+000	5.94736E-005	0.00000E+000	1.60008E+000	0.00000E+000	8	...........	1489.88
	383	1910	1.60067E+000	5.94997E-005	0.00000E+000	1.60008E+000	0.00000E+000	8	...........	1489.88
	384	1915	1.60067E+000	5.94708E-005	0.00000E+000	1.60008E+000	0.00000E+000	8	...........	1489.88
	385	1920	1.60066E+000	5.92750E-005	0.00000E+000	1.60008E+000	0.00000E+000	8	...........	1489.83
	386	1925	1.60067E+000	5.94165E-005	0.00000E+000	1.60008E+000	0.00000E+000	8	...........	1489.83
	387	1930	1.60067E+000	5.94172E-005	0.00000E+000	1.60008E+000	0.00000E+000	8	...........	1489.88
	388	1935	1.60067E+000	5.94618E-005	0.00000E+000	1.60008E+000	0.00000E+000	8	...........	1489.83
	389	1940	1.60067E+000	5.94287E-005	0.00000E+000	1.60008E+000	0.00000E+000	8	...........	1489.88
	390	1945	1.60067E+000	5.94038E-005	0.00000E+000	1.60008E+000	0.00000E+000	8	...........	1489.88
	391	1950	1.60066E+000	5.96058E-005	0.00000E+000	1.60008E+000	0.00000E+000	8	...........	1489.88
	392	1955	1.60066E+000	5.93162E-005	0.00000E+000	1.60008E+000	0.00000E+000	8	...........	1489.84
	393	1960	1.60067E+000	5.91562E-005	0.00000E+000	1.60008E+000	0.00000E+000	8	...........	1489.88
	394	1965	1.60067E+000	5.93112E-005	0.00000E+000	1.60008E+000	0.00000E+000	8	...........	1489.83
	395	1970	1.60066E+000	5.91665E-005	0.00000E+000	1.60008E+000	0.00000E+000	8	...........	1489.88
	396	1975	1.60067E+000	5.91836E-005	0.00000E+000	1.60008E+000	0.00000E+000	8	...........	1489.83
	397	1980	1.60067E+000	5.92542E-005	0.00000E+000	1.60008E+000	0.00000E+000	8	...........	1489.88
	398	1985	1.60067E+000	5.93654E-005	0.00000E+000	1.60008E+000	0.00000E+000	8	...........	1489.88
	399	1990	1.60067E+000	5.92340E-005	0.00000E+000	1.60008E+000	0.00000E+000	8	...........	1489.84
	400	1995	1.60067E+000	5.91838E-005	0.00000E+000	1.60008E+000	0.00000E+000	8	...........	1489.83
	401	2000	1.60067E+000	5.90835E-005	0.00000E+000	1.60008E+000	0.00000E+000	8	...........	1489.79
	402	2005	1.60067E+000	5.90076E-005	0.00000E+000	1.60008E+000	0.00000E+000	8	...........	1489.84
	403	2010	1.60067E+000	5.89943E-005	0.00000E+000	1.60008E+000	0.00000E+000	8	...........	1489.83
	404	2015	1.60067E+000	5.91376E-005	0.00000E+000	1.60008E+000	0.00000E+000	8	...........	1489.88
	405	2020	1.60066E+000	5.91354E-005	0.00000E+000	1.60008E+000	0.00000E+000	8	...........	1489.79
	406	2025	1.60067E+000	5.90161E-005	0.00000E+000	1.60008E+000	0.00000E+000	8	...........	1489.84
	407	2030	1.60067E+000	5.86558E-005	0.00000E+000	1.60008E+000	0.00000E+000	8	...........	1489.84
	408	2035	1.60066E+000	5.86264E-005	0.00000E+000	1.60008E+000	0.00000E+000	8	...........	1489.83
	409	2040	1.60067E+000	5.87922E-005	0.00000E+000	1.60008E+000	0.00000E+000	8	...........	1489.79
	410	2045	1.60066E+000	5.88584E-005	0.00000E+000	1.60008E+000	0.00000E+000	8	...........	1489.88
	411	2050	1.60067E+000	5.89513E-005	0.00000E+000	1.60008E+000	0.00000E+000	8	...........	1489.79
	412	2055	1.60067E+000	5.87851E-005	0.00000E+000	1.60008E+000	0.00000E+000	8	...........	1489.79
	413	2060	1.60067E+000	5.92661E-005	0.00000E+000	1.60008E+000	0.00000E+000	8	...........	1489.79
	414	2065	1.60067E+000	5.98230E-005	0.00000E+000	1.60008E+000	0.00000E+000	8	...........	1489.83
	415	2070	1.60068E+000	5.96688E-005	0.00000E+000	1.60008E+000	0.00000E+000	8	...........	1489.88
	416	2075	1.60067E+000	5.99149E-005	0.00000E+000	1.60008E+000	0.00000E+000	8	...........	1489.79
	417	2080	1.60067E+000	6.02021E-005	0.00000E+000	1.60008E+000	0.00000E+000	8	...........	1489.79
	418	2085	1.60067E+000	5.97436E-005	0.00000E+000	1.60008E+000	0.00000E+000	8	...........	1489.88
	419	2090	1.60067E+000	5.99822E-005	0.00000E+000	1.60008E+000	0.00000E+000	8	...........	1489.79
	420	2095	1.60067E+000	6.03654E-005	0.00000E+000	1.60008E+000	0.00000E+000	8	...........	1489.79
	421	2100	1.60067E+000	6.01883E-005	0.00000E+000	1.60008E+000	0.00000E+000	8	...........	1489.79
	422	2105	1.60067E+000	6.00114E-005	0.00000E+000	1.60008E+000	0.00000E+000	8	...........	1489.88
	423	2110	1.60067E+000	6.02614E-005	0.00000E+000	1.60008E+000	0.00000E+000	8	...........	1489.79
	424	2115	1.60067E+000	6.01279E-005	0.00000E+000	1.60008E+000	0.00000E+000	8	...........	1489.79
	425	2120	1.60067E+000	6.00420E-005	0.00000E+000	1.60008E+000	0.00000E+000	8	...........	1489.88
	426	2125	1.60067E+000	5.96421E-005	0.00000E+000	1.60008E+000	0.00000E+000	8	...........	1489.84
	427	2130	1.60067E+000	5.97314E-005	0.00000E+000	1.60008E+000	0.00000E+000	8	...........	1489.79
	428	2135	1.60067E+000	6.02978E-005	0.00000E+000	1.60008E+000	0.00000E+000	8	...........	1489.84
	429	2140	1.60067E+000	6.03289E-005	0.00000E+000	1.60008E+000	0.00000E+000	8	...........	1489.79
	430	2145	1.60066E+000	6.03934E-005	0.00000E+000	1.60008E+000	0.00000E+000	8	...........	1489.84
	431	2150	1.60067E+000	5.98763E-005	0.00000E+000	1.60008E+000	0.00000E+000	8	...........	1489.83
	432	2155	1.60067E+000	6.04322E-005	0.00000E+000	1.60008E+000	0.00000E+000	8	...........	1489.88
	433	2160	1.60067E+000	6.02089E-005	0.00000E+000	1.60008E+000	0.00000E+000	8	...........	1489.88
	434	2165	1.60066E+000	6.02237E-005	0.00000E+000	1.60008E+000	0.00000E+000	8	...........	1489.88
	435	2170	1.60067E+000	6.01730E-005	0.00000E+000	1.60008E+000	0.00000E+000	8	...........	1489.88
	436	2175	1.60067E+000	6.00868E-005	0.00000E+000	1.60008E+000	0.00000E+000	8	...........	1489.88
	437	2180	1.60066E+000	5.98883E-005	0.00000E+000	1.60008E+000	0.00000E+000	8	...........	1489.84
	438	2185	1.60067E+000	6.01436E-005	0.00000E+000	1.60008E+000	0.00000E+000	8	...........	1489.88
	439	2190	1.60067E+000	6.02382E-005	0.00000E+000	1.60008E+000	0.00000E+000	8	...........	1489.88
	440	2195	1.60067E+000	5.96245E-005	0.00000E+000	1.60008E+000	0.00000E+000	8	...........	1489.79
	441	2200	1.60066E+000	6.01830E-005	0.00000E+000	1.60008E+000	0.00000E+000	8	...........	1489.88
	442	2205	1.60067E+000	6.02700E-005	0.00000E+000	1.60008E+000	0.00000E+000	8	...........	1489.88
	443	2210	1.60067E+000	6.01172E-005	0.00000E+000	1.60008E+000	0.00000E+000	8	...........	1489.88
	444	2215	1.60067E+000	6.02645E-005	0.00000E+000	1.60008E+000	0.00000E+000	8	...........	1489.88
	445	2220	1.60067E+000	5.99081E-005	0.00000E+000	1.60008E+000	0.00000E+000	8	...........	1489.79
	446	2225	1.60067E+000	6.05018E-005	0.00000E+000	1.60008E+000	0.00000E+000	8	...........	1489.88
	447	2230	1.60067E+000	5.99909E-005	0.00000E+000	1.60008E+000	0.00000E+000	8	...........	1489.88
	448	2235	1.60067E+000	6.02912E-005	0.00000E+000	1.60008E+000	0.00000E+000	8	...........	1489.79
	449	2240	1.60067E+000	6.03116E-005	0.00000E+000	1.60008E+000	0.00000E+000	8	...........	1489.88
	450	2245	1.60067E+000	5.99857E-005	0.00000E+000	1.60008E+000	0.00000E+000	8	...........	1489.79
	451	2250	1.60067E+000	6.01546E-005	0.00000E+000	1.60008E+000	0.00000E+000	8	...........	1489.79
	452	2255	1.60067E+000	6.02467E-005	0.00000E+000	1.60008E+000	0.00000E+000	8	...........	1489.79
	453	2260	1.60066E+000	5.99342E-005	0.00000E+000	1.60008E+000	0.00000E+000	8	...........	1489.88
	454	2265	1.60067E+000	6.03981E-005	0.00000E+000	1.60008E+000	0.00000E+000	8	...........	1489.79
	455	2270	1.60067E+000	5.98245E-005	0.00000E+000	1.60008E+000	0.00000E+000	8	...........	1489.83
	456	2275	1.60066E+000	6.00845E-005	0.00000E+000	1.60008E+000	0.00000E+000	8	...........	1489.88
	457	2280	1.60067E+000	5.98803E-005	0.00000E+000	1.60008E+000	0.00000E+000	8	...........	1489.84
	458	2285	1.60066E+000	6.00704E-005	0.00000E+000	1.60008E+000	0.00000E+000	8	...........	1489.79
	459	2290	1.60067E+000	6.00281E-005	0.00000E+000	1.60008E+000	0.00000E+000	8	...........	1489.79
	460	2295	1.60067E+000	6.00347E-005	0.00000E+000	1.60008E+000	0.00000E+000	8	...........	1489.79
	461	2300	1.60067E+000	6.01968E-005	0.00000E+000	1.60008E+000	0.00000E+000	8	...........	1489.79
	462	2305	1.60067E+000	5.96709E-005	0.00000E+000	1.60008E+000	0.00000E+000	8	...........	1489.79
	463	2310	1.60066E+000	6.00859E-005	0.00000E+000	1.60008E+000	0.00000E+000	8	...........	1489.88
	464	2315	1.60067E+000	5.97270E-005	0.00000E+000	1.60008E+000	0.00000E+000	8	...........	1489.79
	465	2320	1.60067E+000	6.03473E-005	0.00000E+000	1.60008E+000	0.00000E+000	8	...........	1489.79
	466	2325	1.60067E+000	5.97043E-005	0.00000E+000	1.60008E+000	0.00000E+000	8	...........	1489.84
	467	2330	1.60066E+000	5.98094E-005	0.00000E+000	1.60008E+000	0.00000E+000	8	...........	1489.88
	468	2335	1.60066E+000	5.99942E-005	0.00000E+000	1.60008E+000	0.00000E+000	8	...........	1489.88
	469	2340	1.60067E+000	5.96781E-005	0.00000E+000	1.60008E+000	0.00000E+000	8	...........	1489.79
	470	2345	1.60067E+000	6.01764E-005	0.00000E+000	1.60008E+000	0.00000E+000	8	...........	1489.79
	471	2350	1.60067E+000	6.00834E-005	0.00000E+000	1.60008E+000	0.00000E+000	8	...........	1489.84
	472	2355	1.60067E+000	5.97832E-005	0.00000E+000	1.60008E+000	0.00000E+000	8	...........	1489.79
	473	2360	1.60066E+000	5.99492E-005	0.00000E+000	1.60008E+000	0.00000E+000	8	...........	1489.79
	474	2365	1.60067E+000	6.01372E-005	0.00000E+000	1.60008E+000	0.00000E+000	8	...........	1489.79
	475	2370	1.60066E+000	5.96706E-005	0.00000E+000	1.60008E+000	0.00000E+000	8	...........	1489.84
	476	2375	1.60066E+000	5.99863E-005	0.00000E+000	1.60008E+000	0.00000E+000	8	...........	1489.84
	477	2380	1.60067E+000	5.99657E-005	0.00000E+000	1.60008E+000	0.00000E+000	8	...........	1489.79
	478	2385	1.60066E+000	5.95846E-005	0.00000E+000	1.60008E+000	0.00000E+000	8	...........	1489.83
	479	2390	1.60066E+000	5.95784E-005	0.00000E+000	1.60008E+000	0.00000E+000	8	...........	1489.79
	480	2395	1.60066E+000	5.99962E-005	0.00000E+000	1.60008E+000	0.00000E+000	8	...........	1489.79
	481	2400	1.60067E+000	5.98882E-005	0.00000E+000	1.60008E+000	0.00000E+000	8	...........	1489.88
	482	2405	1.60066E+000	5.97136E-005	0.00000E+000	1.60008E+000	0.00000E+000	8	...........	1489.83
	483	2410	1.60066E+000	5.98298E-005	0.00000E+000	1.60008E+000	0.00000E+000	8	...........	1489.79
	484	2415	1.60067E+000	5.99225E-005	0.00000E+000	1.60008E+000	0.00000E+000	8	...........	1489.79
	485	2420	1.60066E+000	5.96403E-005	0.00000E+000	1.60008E+000	0.00000E+000	8	...........	1489.79
	486	2425	1.60067E+000	5.95015E-005	0.00000E+000	1.60008E+000	0.00000E+000	8	...........	1489.79
	487	2430	1.60066E+000	6.00559E-005	0.00000E+000	1.60008E+000	0.00000E+000	8	...........	1489.79
	488	2435	1.60067E+000	6.02701E-005	0.00000E+000	1.60008E+000	0.00000E+000	8	...........	1489.79
	489	2440	1.60067E+000	5.97180E-005	0.00000E+000	1.60008E+000	0.00000E+000	8	...........	1489.79
	490	2445	1.60067E+000	5.97078E-005	0.00000E+000	1.60008E+000	0.00000E+000	8	...........	1489.79
	491	2450	1.60066E+000	5.98287E-005	0.00000E+000	1.60008E+000	0.00000E+000	8	...........	1489.79
	492	2455	1.60067E+000	6.01586E-005	0.00000E+000	1.60008E+000	0.00000E+000	8	...........	1489.84
	493	2460	1.60066E+000	6.00978E-005	0.00000E+000	1.60008E+000	0.00000E+000	8	...........	1489.83
	494	2465	1.60066E+000	6.00020E-005	0.00000E+000	1.60008E+000	0.00000E+000	8	...........	1489.79
	495	2470	1.60066E+000	5.98749E-005	0.00000E+000	1.60008E+000	0.00000E+000	8	...........	1489.79
	496	2475	1.60066E+000	5.95308E-005	0.00000E+000	1.60008E+000	0.00000E+000	8	...........	1489.79
	497	2480	1.60067E+000	5.95729E-005	0.00000E+000	1.60008E+000	0.00000E+000	8	...........	1489.79
	498	2485	1.60067E+000	5.96891E-005	0.00000E+000	1.60008E+000	0.00000E+000	8	...........	1489.83
	499	2490	1.60067E+000	5.97037E-005	0.00000E+000	1.60008E+000	0.00000E+000	8	...........	1489.79
	500	2495	1.60066E+000	5.99786E-005	0.00000E+000	1.60008E+000	0.00000E+000	8	...........	1489.79
	501	2500	1.60067E+000	5.99860E-005	0.00000E+000	1.60008E+000	0.00000E+000	8	...........	1489.79
	502	2505	1.60067E+000	6.01143E-005	0.00000E+000	1.60008E+000	0.00000E+000	8	...........	1489.88
	503	2510	1.60067E+000	5.96287E-005	0.00000E+000	1.60008E+000	0.00000E+000	8	...........	1489.79
	504	2515	1.60067E+000	5.96029E-005	0.00000E+000	1.60008E+000	0.00000E+000	8	...........	1489.79
	505	2520	1.60067E+000	5.95698E-005	0.00000E+000	1.60008E+000	0.00000E+000	8	...........	1489.79
	506	2525	1.60067E+000	5.94906E-005	0.00000E+000	1.60008E+000	0.00000E+000	8	...........	1489.79
	507	2530	1.60067E+000	5.95277E-005	0.00000E+000	1.60008E+000	0.00000E+000	8	...........	1489.79
	508	2535	1.60067E+000	5.98425E-005	0.00000E+000	1.60008E+000	0.00000E+000	8	...........	1489.79
	509	2540	1.60067E+000	5.94412E-005	0.00000E+000	1.60008E+000	0.00000E+000	8	...........	1489.79
	510	2545	1.60067E+000	5.94925E-005	0.00000E+000	1.60008E+000	0.00000E+000	8	...........	1489.79
	511	2550	1.60067E+000	5.93596E-005	0.00000E+000	1.60008E+000	0.00000E+000	8	...........	1489.79
	512	2555	1.60067E+000	5.93089E-005	0.00000E+000	1.60008E+000	0.00000E+000	8	...........	1489.79
	513	2560	1.60067E+000	5.91090E-005	0.00000E+000	1.60008E+000	0.00000E+000	8	...........	1489.79
	514	2565	1.60067E+000	5.87991E-005	0.00000E+000	1.60008E+000	0.00000E+000	8	...........	1489.79
	515	2570	1.60067E+000	5.89337E-005	0.00000E+000	1.60008E+000	0.00000E+000	8	...........	1489.79
	516	2575	1.60067E+000	5.90943E-005	0.00000E+000	1.60008E+000	0.00000E+000	8	...........	1489.83
	517	2580	1.60067E+000	5.88426E-005	0.00000E+000	1.60008E+000	0.00000E+000	8	...........	1489.79
	518	2585	1.60067E+000	5.85600E-005	0.00000E+000	1.60008E+000	0.00000E+000	8	...........	1489.79
	519	2590	1.60067E+000	5.84400E-005	0.00000E+000	1.60008E+000	0.00000E+000	8	...........	1489.79
	520	2595	1.60067E+000	5.87652E-005	0.00000E+000	1.60008E+000	0.00000E+000	8	...........	1489.79
	521	2600	1.60066E+000	5.89316E-005	0.00000E+000	1.60008E+000	0.00000E+000	8	...........	1489.83
	522	2605	1.60066E+000	5.85506E-005	0.00000E+000	1.60008E+000	0.00000E+000	8	...........	1489.84
	523	2610	1.60066E+000	5.85270E-005	0.00000E+000	1.60008E+000	0.00000E+000	8	...........	1489.79
	524	2615	1.60066E+000	5.88002E-005	0.00000E+000	1.60008E+000	0.00000E+000	8	...........	1489.79
	525	2620	1.60066E+000	5.90320E-005	0.00000E+000	1.60008E+000	0.00000E+000	8	...........	1489.79
	526	2625	1.60067E+000	5.87414E-005	0.00000E+000	1.60008E+000	0.00000E+000	8	...........	1489.79
	527	2630	1.60067E+000	5.87408E-005	0.00000E+000	1.60008E+000	0.00000E+000	8	...........	1489.79
	528	2635	1.60067E+000	5.84906E-005	0.00000E+000	1.60008E+000	0.00000E+000	8	...........	1489.84
	529	2640	1.60067E+000	5.84793E-005	0.00000E+000	1.60008E+000	0.00000E+000	8	...........	1489.79
	530	2645	1.60067E+000	5.83703E-005	0.00000E+000	1.60008E+000	0.00000E+000	8	...........	1489.79
	531	2650	1.60067E+000	5.83841E-005	0.00000E+000	1.60008E+000	0.00000E+000	8	...........	1489.79
	532	2655	1.60067E+000	5.79504E-005	0.00000E+000	1.60008E+000	0.00000E+000	8	...........	1489.79
	533	2660	1.60067E+000	5.79475E-005	0.00000E+000	1.60008E+000	0.00000E+000	8	...........	1489.79
	534	2665	1.60067E+000	5.84143E-005	0.00000E+000	1.60008E+000	0.00000E+000	8	...........	1489.79
	535	2670	1.60066E+000	5.80576E-005	0.00000E+000	1.60008E+000	0.00000E+000	8	...........	1489.84
	536	2675	1.60067E+000	5.81059E-005	0.00000E+000	1.60008E+000	0.00000E+000	8	...........	1489.83
	537	2680	1.60067E+000	5.81175E-005	0.00000E+000	1.60008E+000	0.00000E+000	8	...........	1489.88
	538	2685	1.60066E+000	5.80663E-005	0.00000E+000	1.60008E+000	0.00000E+000	8	...........	1489.79
	539	2690	1.60066E+000	5.78319E-005	0.00000E+000	1.60008E+000	0.00000E+000	8	...........	1489.84
	540	2695	1.60067E+000	5.80843E-005	0.00000E+000	1.60008E+000	0.00000E+000	8	...........	1489.79
	541	2700	1.60067E+000	5.81869E-005	0.00000E+000	1.60008E+000	0.00000E+000	8	...........	1489.79
	542	2705	1.60067E+000	5.83322E-005	0.00000E+000	1.60008E+000	0.00000E+000	8	...........	1489.88
	543	2710	1.60066E+000	5.81536E-005	0.00000E+000	1.60008E+000	0.00000E+000	8	...........	1489.88
	544	2715	1.60067E+000	5.79821E-005	0.00000E+000	1.60008E+000	0.00000E+000	8	...........	1489.79
	545	2720	1.60067E+000	5.79261E-005	0.00000E+000	1.60008E+000	0.00000E+000	8	...........	1489.79
	546	2725	1.60067E+000	5.80103E-005	0.00000E+000	1.60008E+000	0.00000E+000	8	...........	1489.79
	547	2730	1.60067E+000	5.81265E-005	0.00000E+000	1.60008E+000	0.00000E+000	8	...........	1489.79
	548	2735	1.60066E+000	5.79972E-005	0.00000E+000	1.60008E+000	0.00000E+000	8	...........	1489.79
	549	2740	1.60066E+000	5.79266E-005	0.00000E+000	1.60008E+000	0.00000E+000	8	...........	1489.79
	550	2745	1.60066E+000	5.76565E-005	0.00000E+000	1.60008E+000	0.00000E+000	8	...........	1489.79
	551	2750	1.60066E+000	5.80557E-005	0.00000E+000	1.60008E+000	0.00000E+000	8	...........	1489.79
	552	2755	1.60067E+000	5.78808E-005	0.00000E+000	1.60008E+000	0.00000E+000	8	...........	1489.79
	553	2760	1.60066E+000	5.81834E-005	0.00000E+000	1.60008E+000	0.00000E+000	8	...........	1489.79
	554	2765	1.60066E+000	5.79951E-005	0.00000E+000	1.60008E+000	0.00000E+000	8	...........	1489.79
	555	2770	1.60067E+000	5.77069E-005	0.00000E+000	1.60008E+000	0.00000E+000	8	...........	1489.79
	556	2775	1.60066E+000	5.78776E-005	0.00000E+000	1.60008E+000	0.00000E+000	8	...........	1489.83
	557	2780	1.60066E+000	5.77590E-005	0.00000E+000	1.60008E+000	0.00000E+000	8	...........	1489.84
	558	2785	1.60066E+000	5.74278E-005	0.00000E+000	1.60008E+000	0.00000E+000	8	...........	1489.84
	559	2790	1.60067E+000	5.73990E-005	0.00000E+000	1.60008E+000	0.00000E+000	8	...........	1489.88
	560	2795	1.60067E+000	5.75721E-005	0.00000E+000	1.60008E+000	0.00000E+000	8	...........	1489.88
	561	2800	1.60066E+000	5.74028E-005	0.00000E+000	1.60008E+000	0.00000E+000	8	...........	1489.79
	562	2805	1.60067E+000	5.80053E-005	0.00000E+000	1.60008E+000	0.00000E+000	8	...........	1489.83
	563	2810	1.60066E+000	5.78328E-005	0.00000E+000	1.60008E+000	0.00000E+000	8	...........	1489.79
	564	2815	1.60067E+000	5.76475E-005	0.00000E+000	1.60008E+000	0.00000E+000	8	...........	1489.79
	565	2820	1.60067E+000	5.76387E-005	0.00000E+000	1.60008E+000	0.00000E+000	8	...........	1489.79
	566	2825	1.60067E+000	5.76694E-005	0.00000E+000	1.60008E+000	0.00000E+000	8	...........	1489.79
	567	2830	1.60066E+000	5.73018E-005	0.00000E+000	1.60008E+000	0.00000E+000	8	...........	1489.79
	568	2835	1.60067E+000	5.74170E-005	0.00000E+000	1.60008E+000	0.00000E+000	8	...........	1489.79
	569	2840	1.60067E+000	5.75395E-005	0.00000E+000	1.60008E+000	0.00000E+000	8	...........	1489.83
	570	2845	1.60066E+000	5.74385E-005	0.00000E+000	1.60008E+000	0.00000E+000	8	...........	1489.79
	571	2850	1.60066E+000	5.72967E-005	0.00000E+000	1.60008E+000	0.00000E+000	8	...........	1489.84
	572	2855	1.60066E+000	5.74017E-005	0.00000E+000	1.60008E+000	0.00000E+000	8	...........	1489.79
	573	2860	1.60066E+000	5.72392E-005	0.00000E+000	1.60008E+000	0.00000E+000	8	...........	1489.79
	574	2865	1.60067E+000	5.74824E-005	0.00000E+000	1.60008E+000	0.00000E+000	8	...........	1489.79
	575	2870	1.60067E+000	5.74548E-005	0.00000E+000	1.60008E+000	0.00000E+000	8	...........	1489.79
	576	2875	1.60066E+000	5.72222E-005	0.00000E+000	1.60008E+000	0.00000E+000	8	...........	1489.79
	577	2880	1.60067E+000	5.73145E-005	0.00000E+000	1.60008E+000	0.00000E+000	8	...........	1489.79
	578	2885	1.60067E+000	5.72271E-005	0.00000E+000	1.60008E+000	0.00000E+000	8	...........	1489.79
	579	2890	1.60067E+000	5.74597E-005	0.00000E+000	1.60008E+000	0.00000E+000	8	...........	1489.79
	580	2895	1.60066E+000	5.73348E-005	0.00000E+000	1.60008E+000	0.00000E+000	8	...........	1489.79
	581	2900	1.60067E+000	5.75001E-005	0.00000E+000	1.60008E+000	0.00000E+000	8	...........	1489.79
	582	2905	1.60067E+000	5.72508E-005	0.00000E+000	1.60008E+000	0.00000E+000	8	...........	1489.79
	583	2910	1.60067E+000	5.81474E-005	0.00000E+000	1.60008E+000	0.00000E+000	8	...........	1489.79
	584	2915	1.60066E+000	5.78444E-005	0.00000E+000	1.60008E+000	0.00000E+000	8	...........	1489.79
	585	2920	1.60067E+000	5.80199E-005	0.00000E+000	1.60008E+000	0.00000E+000	8	...........	1489.79
	586	2925	1.60067E+000	5.78042E-005	0.00000E+000	1.60008E+000	0.00000E+000	8	...........	1489.79
	587	2930	1.60067E+000	5.78956E-005	0.00000E+000	1.60008E+000	0.00000E+000	8	...........	1489.79
	588	2935	1.60068E+000	5.79478E-005	0.00000E+000	1.60008E+000	0.00000E+000	8	...........	1489.79
	589	2940	1.60067E+000	5.76016E-005	0.00000E+000	1.60008E+000	0.00000E+000	8	...........	1489.79
	590	2945	1.60067E+000	5.80582E-005	0.00000E+000	1.60008E+000	0.00000E+000	8	...........	1489.79
	591	2950	1.60067E+000	5.79257E-005	0.00000E+000	1.60008E+000	0.00000E+000	8	...........	1489.79
	592	2955	1.60068E+000	5.75568E-005	0.00000E+000	1.60008E+000	0.00000E+000	8	...........	1489.79
	593	2960	1.60068E+000	5.77824E-005	0.00000E+000	1.60008E+000	0.00000E+000	8	...........	1489.79
	594	2965	1.60067E+000	5.84002E-005	0.00000E+000	1.60008E+000	0.00000E+000	8	...........	1489.79
	595	2970	1.60067E+000	5.76545E-005	0.00000E+000	1.60008E+000	0.00000E+000	8	...........	1489.79
	596	2975	1.60067E+000	5.75462E-005	0.00000E+000	1.60008E+000	0.00000E+000	8	...........	1489.79
	597	2980	1.60067E+000	5.77542E-005	0.00000E+000	1.60008E+000	0.00000E+000	8	...........	1489.79
	598	2985	1.60067E+000	5.74845E-005	0.00000E+000	1.60008E+000	0.00000E+000	8	...........	1489.79
	599	2990	1.60067E+000	5.75816E-005	0.00000E+000	1.60008E+000	0.00000E+000	8	...........	1489.79
	600	2995	1.60067E+000	5.76506E-005	0.00000E+000	1.60008E+000	0.00000E+000	8	...........	1489.79
	601	3000	1.60066E+000	5.73759E-005	0.00000E+000	1.60008E+000	0.00000E+000	8	...........	1489.79
	602	3005	1.60067E+000	5.76387E-005	0.00000E+000	1.60008E+000	0.00000E+000	8	...........	1489.79
	603	3010	1.60067E+000	5.72935E-005	0.00000E+000	1.60008E+000	0.00000E+000	8	...........	1489.79
	604	3015	1.60067E+000	5.74848E-005	0.00000E+000	1.60008E+000	0.00000E+000	8	...........	1489.79
	605	3020	1.60067E+000	5.71391E-005	0.00000E+000	1.60008E+000	0.00000E+000	8	...........	1489.79
	606	3025	1.60067E+000	5.71253E-005	0.00000E+000	1.60008E+000	0.00000E+000	8	...........	1489.79
	607	3030	1.60067E+000	5.71345E-005	0.00000E+000	1.60008E+000	0.00000E+000	8	...........	1489.79
	608	3035	1.60068E+000	5.70376E-005	0.00000E+000	1.60008E+000	0.00000E+000	8	...........	1489.79
	609	3040	1.60067E+000	5.74139E-005	0.00000E+000	1.60008E+000	0.00000E+000	8	...........	1489.79
	610	3045	1.60067E+000	5.73806E-005	0.00000E+000	1.60008E+000	0.00000E+000	8	...........	1489.79
	611	3050	1.60067E+000	5.70620E-005	0.00000E+000	1.60008E+000	0.00000E+000	8	...........	1489.79
	612	3055	1.60067E+000	5.68514E-005	0.00000E+000	1.60008E+000	0.00000E+000	8	...........	1489.79
	613	3060	1.60066E+000	5.71160E-005	0.00000E+000	1.60008E+000	0.00000E+000	8	...........	1489.79
	614	3065	1.60067E+000	5.74199E-005	0.00000E+000	1.60008E+000	0.00000E+000	8	...........	1489.79
	615	3070	1.60066E+000	5.71044E-005	0.00000E+000	1.60008E+000	0.00000E+000	8	...........	1489.84
	616	3075	1.60067E+000	5.69830E-005	0.00000E+000	1.60008E+000	0.00000E+000	8	...........	1489.79
	617	3080	1.60067E+000	5.70367E-005	0.00000E+000	1.60008E+000	0.00000E+000	8	...........	1489.79
	618	3085	1.60067E+000	5.71723E-005	0.00000E+000	1.60008E+000	0.00000E+000	8	...........	1489.79
	619	3090	1.60066E+000	5.71877E-005	0.00000E+000	1.60008E+000	0.00000E+000	8	...........	1489.79
	620	3095	1.60067E+000	5.70809E-005	0.00000E+000	1.60008E+000	0.00000E+000	8	...........	1489.79
	621	3100	1.60067E+000	5.72122E-005	0.00000E+000	1.60008E+000	0.00000E+000	8	...........	1489.79
	622	3105	1.60067E+000	5.68122E-005	0.00000E+000	1.60008E+000	0.00000E+000	8	...........	1489.79
	623	3110	1.60067E+000	5.69914E-005	0.00000E+000	1.60008E+000	0.00000E+000	8	...........	1489.79
	624	3115	1.60067E+000	5.68423E-005	0.00000E+000	1.60008E+000	0.00000E+000	8	...........	1489.79
	625	3120	1.60067E+000	5.71700E-005	0.00000E+000	1.60008E+000	0.00000E+000	8	...........	1489.79
	626	3125	1.60067E+000	5.71582E-005	0.00000E+000	1.60008E+000	0.00000E+000	8	...........	1489.79
	627	3130	1.60067E+000	5.71577E-005	0.00000E+000	1.60008E+000	0.00000E+000	8	...........	1489.79
	628	3135	1.60067E+000	5.71539E-005	0.00000E+000	1.60008E+000	0.00000E+000	8	...........	1489.79
	629	3140	1.60067E+000	5.73739E-005	0.00000E+000	1.60008E+000	0.00000E+000	8	...........	1489.79
	630	3145	1.60067E+000	5.74044E-005	0.00000E+000	1.60008E+000	0.00000E+000	8	...........	1489.79
	631	3150	1.60067E+000	5.70888E-005	0.00000E+000	1.60008E+000	0.00000E+000	8	...........	1489.79
	632	3155	1.60067E+000	5.69372E-005	0.00000E+000	1.60008E+000	0.00000E+000	8	...........	1489.79
	633	3160	1.60067E+000	5.65796E-005	0.00000E+000	1.60008E+000	0.00000E+000	8	...........	1489.79
	634	3165	1.60067E+000	5.66282E-005	0.00000E+000	1.60008E+000	0.00000E+000	8	...........	1489.79
	635	3170	1.60067E+000	5.68385E-005	0.00000E+000	1.60008E+000	0.00000E+000	8	...........	1489.79
	636	3175	1.60066E+000	5.69879E-005	0.00000E+000	1.60008E+000	0.00000E+000	8	...........	1489.79
	637	3180	1.60067E+000	5.66540E-005	0.00000E+000	1.60008E+000	0.00000E+000	8	...........	1489.79
	638	3185	1.60067E+000	5.66519E-005	0.00000E+000	1.60008E+000	0.00000E+000	8	...........	1489.84
	639	3190	1.60067E+000	5.67832E-005	0.00000E+000	1.60008E+000	0.00000E+000	8	...........	1489.79
	640	3195	1.60066E+000	5.70060E-005	0.00000E+000	1.60008E+000	0.00000E+000	8	...........	1489.79
	641	3200	1.60067E+000	5.66844E-005	0.00000E+000	1.60008E+000	0.00000E+000	8	...........	1489.79
	642	3205	1.60067E+000	5.67880E-005	0.00000E+000	1.60008E+000	0.00000E+000	8	...........	1489.83
	643	3210	1.60067E+000	5.65138E-005	0.00000E+000	1.60008E+000	0.00000E+000	8	...........	1489.79
	644	3215	1.60067E+000	5.65955E-005	0.00000E+000	1.60008E+000	0.00000E+000	8	...........	1489.84
	645	3220	1.60067E+000	5.64725E-005	0.00000E+000	1.60008E+000	0.00000E+000	8	...........	1489.79
	646	3225	1.60067E+000	5.65068E-005	0.00000E+000	1.60008E+000	0.00000E+000	8	...........	1489.83
	647	3230	1.60067E+000	5.64698E-005	0.00000E+000	1.60008E+000	0.00000E+000	8	...........	1489.88
	648	3235	1.60067E+000	5.62997E-005	0.00000E+000	1.60008E+000	0.00000E+000	8	...........	1489.83
	649	3240	1.60067E+000	5.63732E-005	0.00000E+000	1.60008E+000	0.00000E+000	8	...........	1489.88
	650	3245	1.60067E+000	5.61612E-005	0.00000E+000	1.60008E+000	0.00000E+000	8	...........	1489.79
	651	3250	1.60067E+000	5.63678E-005	0.00000E+000	1.60008E+000	0.00000E+000	8	...........	1489.79
	652	3255	1.60067E+000	5.68238E-005	0.00000E+000	1.60008E+000	0.00000E+000	8	...........	1489.79
	653	3260	1.60067E+000	5.69499E-005	0.00000E+000	1.60008E+000	0.00000E+000	8	...........	1489.84
	654	3265	1.60067E+000	5.69153E-005	0.00000E+000	1.60008E+000	0.00000E+000	8	...........	1489.84
	655	3270	1.60067E+000	5.65717E-005	0.00000E+000	1.60008E+000	0.00000E+000	8	...........	1489.79
	656	3275	1.60067E+000	5.66145E-005	0.00000E+000	1.60008E+000	0.00000E+000	8	...........	1489.83
	657	3280	1.60067E+000	5.63809E-005	0.00000E+000	1.60008E+000	0.00000E+000	8	...........	1489.88
	658	3285	1.60068E+000	5.65941E-005	0.00000E+000	1.60008E+000	0.00000E+000	8	...........	1489.84
	659	3290	1.60067E+000	5.65447E-005	0.00000E+000	1.60008E+000	0.00000E+000	8	...........	1489.83
	660	3295	1.60067E+000	5.59879E-005	0.00000E+000	1.60008E+000	0.00000E+000	8	...........	1489.79
	661	3300	1.60067E+000	5.62668E-005	0.00000E+000	1.60008E+000	0.00000E+000	8	...........	1489.79
	662	3305	1.60067E+000	5.59958E-005	0.00000E+000	1.60008E+000	0.00000E+000	8	...........	1489.83
	663	3310	1.60067E+000	5.61084E-005	0.00000E+000	1.60008E+000	0.00000E+000	8	...........	1489.79
	664	3315	1.60066E+000	5.61483E-005	0.00000E+000	1.60008E+000	0.00000E+000	8	...........	1489.79
	665	3320	1.60067E+000	5.58340E-005	0.00000E+000	1.60008E+000	0.00000E+000	8	...........	1489.79
	666	3325	1.60067E+000	5.60901E-005	0.00000E+000	1.60008E+000	0.00000E+000	8	...........	1489.83
	667	3330	1.60067E+000	5.61452E-005	0.00000E+000	1.60008E+000	0.00000E+000	8	...........	1489.79
	668	3335	1.60067E+000	5.61058E-005	0.00000E+000	1.60008E+000	0.00000E+000	8	...........	1489.79
	669	3340	1.60067E+000	5.60413E-005	0.00000E+000	1.60008E+000	0.00000E+000	8	...........	1489.83
	670	3345	1.60067E+000	5.60909E-005	0.00000E+000	1.60008E+000	0.00000E+000	8	...........	1489.79
	671	3350	1.60067E+000	5.62257E-005	0.00000E+000	1.60008E+000	0.00000E+000	8	...........	1489.79
	672	3355	1.60067E+000	5.59070E-005	0.00000E+000	1.60008E+000	0.00000E+000	8	...........	1489.84
	673	3360	1.60067E+000	5.58248E-005	0.00000E+000	1.60008E+000	0.00000E+000	8	...........	1489.83
	674	3365	1.60067E+000	5.57988E-005	0.00000E+000	1.60008E+000	0.00000E+000	8	...........	1489.84
	675	3370	1.60067E+000	5.58962E-005	0.00000E+000	1.60008E+000	0.00000E+000	8	...........	1489.79
	676	3375	1.60067E+000	5.60309E-005	0.00000E+000	1.60008E+000	0.00000E+000	8	...........	1489.84
	677	3380	1.60067E+000	5.56173E-005	0.00000E+000	1.60008E+000	0.00000E+000	8	...........	1489.79
	678	3385	1.60067E+000	5.56412E-005	0.00000E+000	1.60008E+000	0.00000E+000	8	...........	1489.79
	679	3390	1.60067E+000	5.51530E-005	0.00000E+000	1.60008E+000	0.00000E+000	8	...........	1489.79
	680	3395	1.60067E+000	5.55231E-005	0.00000E+000	1.60008E+000	0.00000E+000	8	...........	1489.79
	681	3400	1.60067E+000	5.54357E-005	0.00000E+000	1.60008E+000	0.00000E+000	8	...........	1489.79
	682	3405	1.60068E+000	5.58569E-005	0.00000E+000	1.60008E+000	0.00000E+000	8	...........	1489.83
	683	3410	1.60067E+000	5.54005E-005	0.00000E+000	1.60008E+000	0.00000E+000	8	...........	1489.79
	684	3415	1.60067E+000	5.57137E-005	0.00000E+000	1.60008E+000	0.00000E+000	8	...........	1489.79
	685	3420	1.60067E+000	5.56364E-005	0.00000E+000	1.60008E+000	0.00000E+000	8	...........	1489.79
	686	3425	1.60067E+000	5.54513E-005	0.00000E+000	1.60008E+000	0.00000E+000	8	...........	1489.79
	687	3430	1.60067E+000	5.56194E-005	0.00000E+000	1.60008E+000	0.00000E+000	8	...........	1489.79
	688	3435	1.60067E+000	5.54949E-005	0.00000E+000	1.60008E+000	0.00000E+000	8	...........	1489.79
	689	3440	1.60067E+000	5.54843E-005	0.00000E+000	1.60008E+000	0.00000E+000	8	...........	1489.79
	690	3445	1.60067E+000	5.55565E-005	0.00000E+000	1.60008E+000	0.00000E+000	8	...........	1489.79
	691	3450	1.60067E+000	5.53413E-005	0.00000E+000	1.60008E+000	0.00000E+000	8	...........	1489.79
	692	3455	1.60067E+000	5.52531E-005	0.00000E+000	1.60008E+000	0.00000E+000	8	...........	1489.79
	693	3460	1.60067E+000	5.50815E-005	0.00000E+000	1.60008E+000	0.00000E+000	8	...........	1489.79
	694	3465	1.60066E+000	5.49519E-005	0.00000E+000	1.60008E+000	0.00000E+000	8	...........	1489.79
	695	3470	1.60067E+000	5.51353E-005	0.00000E+000	1.60008E+000	0.00000E+000	8	...........	1489.79
	696	3475	1.60066E+000	5.50410E-005	0.00000E+000	1.60008E+000	0.00000E+000	8	...........	1489.79
	697	3480	1.60067E+000	5.51621E-005	0.00000E+000	1.60008E+000	0.00000E+000	8	...........	1489.79
	698	3485	1.60067E+000	5.50429E-005	0.00000E+000	1.60008E+000	0.00000E+000	8	...........	1489.79
	699	3490	1.60067E+000	5.52117E-005	0.00000E+000	1.60008E+000	0.00000E+000	8	...........	1489.83
	700	3495	1.60067E+000	5.52431E-005	0.00000E+000	1.60008E+000	0.00000E+000	8	...........	1489.83
	701	3500	1.60067E+000	5.50092E-005	0.00000E+000	1.60008E+000	0.00000E+000	8	...........	1489.79
	702	3505	1.60067E+000	5.48012E-005	0.00000E+000	1.60008E+000	0.00000E+000	8	...........	1489.79
	703	3510	1.60068E+000	5.48854E-005	0.00000E+000	1.60008E+000	0.00000E+000	8	...........	1489.79
	704	3515	1.60067E+000	5.49057E-005	0.00000E+000	1.60008E+000	0.00000E+000	8	...........	1489.79
	705	3520	1.60067E+000	5.49351E-005	0.00000E+000	1.60008E+000	0.00000E+000	8	...........	1489.84
	706	3525	1.60066E+000	5.52418E-005	0.00000E+000	1.60008E+000	0.00000E+000	8	...........	1489.79
	707	3530	1.60067E+000	5.48578E-005	0.00000E+000	1.60008E+000	0.00000E+000	8	...........	1489.79
	708	3535	1.60066E+000	5.45272E-005	0.00000E+000	1.60008E+000	0.00000E+000	8	...........	1489.79
	709	3540	1.60067E+000	5.48669E-005	0.00000E+000	1.60008E+000	0.00000E+000	8	...........	1489.79
	710	3545	1.60067E+000	5.48426E-005	0.00000E+000	1.60008E+000	0.00000E+000	8	...........	1489.79
	711	3550	1.60067E+000	5.50556E-005	0.00000E+000	1.60008E+000	0.00000E+000	8	...........	1489.79
	712	3555	1.60067E+000	5.54369E-005	0.00000E+000	1.60008E+000	0.00000E+000	8	...........	1489.79
	713	3560	1.60067E+000	5.51809E-005	0.00000E+000	1.60008E+000	0.00000E+000	8	...........	1489.79
	714	3565	1.60067E+000	5.46870E-005	0.00000E+000	1.60008E+000	0.00000E+000	8	...........	1489.79
	715	3570	1.60067E+000	5.47143E-005	0.00000E+000	1.60008E+000	0.00000E+000	8	...........	1489.79
	716	3575	1.60067E+000	5.51068E-005	0.00000E+000	1.60008E+000	0.00000E+000	8	...........	1489.79
	717	3580	1.60067E+000	5.43070E-005	0.00000E+000	1.60008E+000	0.00000E+000	8	...........	1489.79
	718	3585	1.60068E+000	5.50023E-005	0.00000E+000	1.60008E+000	0.00000E+000	8	...........	1489.79
	719	3590	1.60067E+000	5.49799E-005	0.00000E+000	1.60008E+000	0.00000E+000	8	...........	1489.79
	720	3595	1.60067E+000	5.48728E-005	0.00000E+000	1.60008E+000	0.00000E+000	8	...........	1489.79
	721	3600	1.60067E+000	5.50601E-005	0.00000E+000	1.60008E+000	0.00000E+000	8	...........	1489.79
	722	3605	1.60066E+000	5.45787E-005	0.00000E+000	1.60008E+000	0.00000E+000	8	...........	1489.79
	723	3610	1.60068E+000	5.46171E-005	0.00000E+000	1.60008E+000	0.00000E+000	8	...........	1489.84
	724	3615	1.60067E+000	5.49939E-005	0.00000E+000	1.60008E+000	0.00000E+000	8	...........	1489.83
	725	3620	1.60067E+000	5.40199E-005	0.00000E+000	1.60008E+000	0.00000E+000	8	...........	1489.79
	726	3625	1.60067E+000	5.45286E-005	0.00000E+000	1.60008E+000	0.00000E+000	8	...........	1489.83
	727	3630	1.60067E+000	5.44268E-005	0.00000E+000	1.60008E+000	0.00000E+000	8	...........	1489.79
	728	3635	1.60067E+000	5.44614E-005	0.00000E+000	1.60008E+000	0.00000E+000	8	...........	1489.79
	729	3640	1.60067E+000	5.45987E-005	0.00000E+000	1.60008E+000	0.00000E+000	8	...........	1489.79
	730	3645	1.60067E+000	5.44392E-005	0.00000E+000	1.60008E+000	0.00000E+000	8	...........	1489.79
	731	3650	1.60067E+000	5.44409E-005	0.00000E+000	1.60008E+000	0.00000E+000	8	...........	1489.79
	732	3655	1.60067E+000	5.41865E-005	0.00000E+000	1.60008E+000	0.00000E+000	8	...........	1489.79
	733	3660	1.60067E+000	5.41842E-005	0.00000E+000	1.60008E+000	0.00000E+000	8	...........	1489.79
	734	3665	1.60067E+000	5.44806E-005	0.00000E+000	1.60008E+000	0.00000E+000	8	...........	1489.79
	735	3670	1.60067E+000	5.42440E-005	0.00000E+000	1.60008E+000	0.00000E+000	8	...........	1489.79
	736	3675	1.60067E+000	5.43656E-005	0.00000E+000	1.60008E+000	0.00000E+000	8	...........	1489.79
	737	3680	1.60067E+000	5.46400E-005	0.00000E+000	1.60008E+000	0.00000E+000	8	...........	1489.79
	738	3685	1.60066E+000	5.46957E-005	0.00000E+000	1.60008E+000	0.00000E+000	8	...........	1489.88
	739	3690	1.60067E+000	5.51667E-005	0.00000E+000	1.60008E+000	0.00000E+000	8	...........	1489.79
	740	3695	1.60066E+000	5.49379E-005	0.00000E+000	1.60008E+000	0.00000E+000	8	...........	1489.79
	741	3700	1.60067E+000	5.52462E-005	0.00000E+000	1.60008E+000	0.00000E+000	8	...........	1489.79
	742	3705	1.60067E+000	5.50098E-005	0.00000E+000	1.60008E+000	0.00000E+000	8	...........	1489.79
	743	3710	1.60067E+000	5.52937E-005	0.00000E+000	1.60008E+000	0.00000E+000	8	...........	1489.79
	744	3715	1.60067E+000	5.52164E-005	0.00000E+000	1.60008E+000	0.00000E+000	8	...........	1489.79
	745	3720	1.60067E+000	5.51634E-005	0.00000E+000	1.60008E+000	0.00000E+000	8	...........	1489.79
	746	3725	1.60067E+000	5.49237E-005	0.00000E+000	1.60008E+000	0.00000E+000	8	...........	1489.79
	747	3730	1.60067E+000	5.46218E-005	0.00000E+000	1.60008E+000	0.00000E+000	8	...........	1489.79
	748	3735	1.60067E+000	5.46030E-005	0.00000E+000	1.60008E+000	0.00000E+000	8	...........	1489.79
	749	3740	1.60067E+000	5.43710E-005	0.00000E+000	1.60008E+000	0.00000E+000	8	...........	1489.79
	750	3745	1.60067E+000	5.49577E-005	0.00000E+000	1.60008E+000	0.00000E+000	8	...........	1489.79
	751	3750	1.60067E+000	5.49718E-005	0.00000E+000	1.60008E+000	0.00000E+000	8	...........	1489.79
	752	3755	1.60067E+000	5.53490E-005	0.00000E+000	1.60008E+000	0.00000E+000	8	...........	1489.79
	753	3760	1.60067E+000	5.49271E-005	0.00000E+000	1.60008E+000	0.00000E+000	8	...........	1489.79
	754	3765	1.60067E+000	5.47223E-005	0.00000E+000	1.60008E+000	0.00000E+000	8	...........	1489.79
	755	3770	1.60067E+000	5.45600E-005	0.00000E+000	1.60008E+000	0.00000E+000	8	...........	1489.84
	756	3775	1.60067E+000	5.48784E-005	0.00000E+000	1.60008E+000	0.00000E+000	8	...........	1489.79
	757	3780	1.60067E+000	5.44268E-005	0.00000E+000	1.60008E+000	0.00000E+000	8	...........	1489.79
	758	3785	1.60067E+000	5.48921E-005	0.00000E+000	1.60008E+000	0.00000E+000	8	...........	1489.79
	759	3790	1.60066E+000	5.43669E-005	0.00000E+000	1.60008E+000	0.00000E+000	8	...........	1489.84
	760	3795	1.60066E+000	5.47256E-005	0.00000E+000	1.60008E+000	0.00000E+000	8	...........	1489.79
	761	3800	1.60067E+000	5.41535E-005	0.00000E+000	1.60008E+000	0.00000E+000	8	...........	1489.79
	762	3805	1.60067E+000	5.47513E-005	0.00000E+000	1.60008E+000	0.00000E+000	8	...........	1489.79
	763	3810	1.60066E+000	5.41787E-005	0.00000E+000	1.60008E+000	0.00000E+000	8	...........	1489.79
	764	3815	1.60067E+000	5.49975E-005	0.00000E+000	1.60008E+000	0.00000E+000	8	...........	1489.79
	765	3820	1.60067E+000	5.49540E-005	0.00000E+000	1.60008E+000	0.00000E+000	8	...........	1489.79
	766	3825	1.60066E+000	5.42879E-005	0.00000E+000	1.60008E+000	0.00000E+000	8	...........	1489.79
	767	3830	1.60067E+000	5.37707E-005	0.00000E+000	1.60008E+000	0.00000E+000	8	...........	1489.79
	768	3835	1.60067E+000	5.39445E-005	0.00000E+000	1.60008E+000	0.00000E+000	8	...........	1489.79
	769	3840	1.60066E+000	5.43404E-005	0.00000E+000	1.60008E+000	0.00000E+000	8	...........	1489.79
	770	3845	1.60067E+000	5.39663E-005	0.00000E+000	1.60008E+000	0.00000E+000	8	...........	1489.79
	771	3850	1.60067E+000	5.38794E-005	0.00000E+000	1.60008E+000	0.00000E+000	8	...........	1489.79
	772	3855	1.60067E+000	5.44000E-005	0.00000E+000	1.60008E+000	0.00000E+000	8	...........	1489.79
	773	3860	1.60067E+000	5.43456E-005	0.00000E+000	1.60008E+000	0.00000E+000	8	...........	1489.79
	774	3865	1.60067E+000	5.41806E-005	0.00000E+000	1.60008E+000	0.00000E+000	8	...........	1489.79
	775	3870	1.60066E+000	5.39557E-005	0.00000E+000	1.60008E+000	0.00000E+000	8	...........	1489.79
	776	3875	1.60066E+000	5.37414E-005	0.00000E+000	1.60008E+000	0.00000E+000	8	...........	1489.79
	777	3880	1.60067E+000	5.40596E-005	0.00000E+000	1.60008E+000	0.00000E+000	8	...........	1489.79
	778	3885	1.60067E+000	5.39983E-005	0.00000E+000	1.60008E+000	0.00000E+000	8	...........	1489.79
	779	3890	1.60067E+000	5.35219E-005	0.00000E+000	1.60008E+000	0.00000E+000	8	...........	1489.79
	780	3895	1.60067E+000	5.40222E-005	0.00000E+000	1.60008E+000	0.00000E+000	8	...........	1489.79
	781	3900	1.60066E+000	5.39490E-005	0.00000E+000	1.60008E+000	0.00000E+000	8	...........	1489.79
	782	3905	1.60067E+000	5.36551E-005	0.00000E+000	1.60008E+000	0.00000E+000	8	...........	1489.79
	783	3910	1.60067E+000	5.38492E-005	0.00000E+000	1.60008E+000	0.00000E+000	8	...........	1489.79
	784	3915	1.60067E+000	5.34208E-005	0.00000E+000	1.60008E+000	0.00000E+000	8	...........	1489.79
	785	3920	1.60067E+000	5.39620E-005	0.00000E+000	1.60008E+000	0.00000E+000	8	...........	1489.79
	786	3925	1.60067E+000	5.37245E-005	0.00000E+000	1.60008E+000	0.00000E+000	8	...........	1489.79
	787	3930	1.60067E+000	5.33839E-005	0.00000E+000	1.60008E+000	0.00000E+000	8	...........	1489.79
	788	3935	1.60066E+000	5.35143E-005	0.00000E+000	1.60008E+000	0.00000E+000	8	...........	1489.79
	789	3940	1.60067E+000	5.39988E-005	0.00000E+000	1.60008E+000	0.00000E+000	8	...........	1489.79
	790	3945	1.60067E+000	5.35957E-005	0.00000E+000	1.60008E+000	0.00000E+000	8	...........	1489.79
	791	3950	1.60067E+000	5.37037E-005	0.00000E+000	1.60008E+000	0.00000E+000	8	...........	1489.83
	792	3955	1.60067E+000	5.32896E-005	0.00000E+000	1.60008E+000	0.00000E+000	8	...........	1489.79
	793	3960	1.60067E+000	5.33845E-005	0.00000E+000	1.60008E+000	0.00000E+000	8	...........	1489.79
	794	3965	1.60067E+000	5.34117E-005	0.00000E+000	1.60008E+000	0.00000E+000	8	...........	1489.79
	795	3970	1.60067E+000	5.32475E-005	0.00000E+000	1.60008E+000	0.00000E+000	8	...........	1489.79
	796	3975	1.60066E+000	5.33031E-005	0.00000E+000	1.60008E+000	0.00000E+000	8	...........	1489.79
	797	3980	1.60067E+000	5.31333E-005	0.00000E+000	1.60008E+000	0.00000E+000	8	...........	1489.79
	798	3985	1.60067E+000	5.32354E-005	0.00000E+000	1.60008E+000	0.00000E+000	8	...........	1489.88
	799	3990	1.60067E+000	5.36141E-005	0.00000E+000	1.60008E+000	0.00000E+000	8	...........	1489.79
	800	3995	1.60067E+000	5.33518E-005	0.00000E+000	1.60008E+000	0.00000E+000	8	...........	1489.79
	801	4000	1.60067E+000	5.32187E-005	0.00000E+000	1.60008E+000	0.00000E+000	8	...........	1489.79
	802	4005	1.60067E+000	5.35113E-005	0.00000E+000	1.60008E+000	0.00000E+000	8	...........	1489.84
	803	4010	1.60067E+000	5.37807E-005	0.00000E+000	1.60008E+000	0.00000E+000	8	...........	1489.79
	804	4015	1.60066E+000	5.32333E-005	0.00000E+000	1.60008E+000	0.00000E+000	8	...........	1489.83
	805	4020	1.60067E+000	5.28151E-005	0.00000E+000	1.60008E+000	0.00000E+000	8	...........	1489.88
	806	4025	1.60067E+000	5.30793E-005	0.00000E+000	1.60008E+000	0.00000E+000	8	...........	1489.88
	807	4030	1.60067E+000	5.32539E-005	0.00000E+000	1.60008E+000	0.00000E+000	8	...........	1489.79
	808	4035	1.60067E+000	5.32630E-005	0.00000E+000	1.60008E+000	0.00000E+000	8	...........	1489.84
	809	4040	1.60067E+000	5.31584E-005	0.00000E+000	1.60008E+000	0.00000E+000	8	...........	1489.79
	810	4045	1.60067E+000	5.30964E-005	0.00000E+000	1.60008E+000	0.00000E+000	8	...........	1489.79
	811	4050	1.60067E+000	5.30268E-005	0.00000E+000	1.60008E+000	0.00000E+000	8	...........	1489.83
	812	4055	1.60067E+000	5.31771E-005	0.00000E+000	1.60008E+000	0.00000E+000	8	...........	1489.79
	813	4060	1.60067E+000	5.29836E-005	0.00000E+000	1.60008E+000	0.00000E+000	8	...........	1489.79
	814	4065	1.60066E+000	5.27893E-005	0.00000E+000	1.60008E+000	0.00000E+000	8	...........	1489.79
	815	4070	1.60067E+000	5.32017E-005	0.00000E+000	1.60008E+000	0.00000E+000	8	...........	1489.83
	816	4075	1.60067E+000	5.34525E-005	0.00000E+000	1.60008E+000	0.00000E+000	8	...........	1489.83
	817	4080	1.60067E+000	5.31732E-005	0.00000E+000	1.60008E+000	0.00000E+000	8	...........	1489.88
	818	4085	1.60066E+000	5.27620E-005	0.00000E+000	1.60008E+000	0.00000E+000	8	...........	1489.79
	819	4090	1.60067E+000	5.30556E-005	0.00000E+000	1.60008E+000	0.00000E+000	8	...........	1489.88
	820	4095	1.60067E+000	5.26031E-005	0.00000E+000	1.60008E+000	0.00000E+000	8	...........	1489.79
	821	4100	1.60067E+000	5.31924E-005	0.00000E+000	1.60008E+000	0.00000E+000	8	...........	1489.79
	822	4105	1.60067E+000	5.28611E-005	0.00000E+000	1.60008E+000	0.00000E+000	8	...........	1489.84
	823	4110	1.60067E+000	5.29365E-005	0.00000E+000	1.60008E+000	0.00000E+000	8	...........	1489.88
	824	4115	1.60067E+000	5.28189E-005	0.00000E+000	1.60008E+000	0.00000E+000	8	...........	1489.88
	825	4120	1.60067E+000	5.28002E-005	0.00000E+000	1.60008E+000	0.00000E+000	8	...........	1489.79
	826	4125	1.60067E+000	5.28206E-005	0.00000E+000	1.60008E+000	0.00000E+000	8	...........	1489.79
	827	4130	1.60066E+000	5.30702E-005	0.00000E+000	1.60008E+000	0.00000E+000	8	...........	1489.84
	828	4135	1.60066E+000	5.26305E-005	0.00000E+000	1.60008E+000	0.00000E+000	8	...........	1489.88
	829	4140	1.60066E+000	5.30274E-005	0.00000E+000	1.60008E+000	0.00000E+000	8	...........	1489.83
	830	4145	1.60067E+000	5.25596E-005	0.00000E+000	1.60008E+000	0.00000E+000	8	...........	1489.83
	831	4150	1.60066E+000	5.30166E-005	0.00000E+000	1.60008E+000	0.00000E+000	8	...........	1489.79
	832	4155	1.60066E+000	5.23795E-005	0.00000E+000	1.60008E+000	0.00000E+000	8	...........	1489.83
	833	4160	1.60067E+000	5.29627E-005	0.00000E+000	1.60008E+000	0.00000E+000	8	...........	1489.83
	834	4165	1.60066E+000	5.27805E-005	0.00000E+000	1.60008E+000	0.00000E+000	8	...........	1489.79
	835	4170	1.60067E+000	5.24986E-005	0.00000E+000	1.60008E+000	0.00000E+000	8	...........	1489.84
	836	4175	1.60067E+000	5.25532E-005	0.00000E+000	1.60008E+000	0.00000E+000	8	...........	1489.84
	837	4180	1.60067E+000	5.21794E-005	0.00000E+000	1.60008E+000	0.00000E+000	8	...........	1489.83
	838	4185	1.60067E+000	5.24680E-005	0.00000E+000	1.60008E+000	0.00000E+000	8	...........	1489.84
	839	4190	1.60066E+000	5.26243E-005	0.00000E+000	1.60008E+000	0.00000E+000	8	...........	1489.88
	840	4195	1.60067E+000	5.26353E-005	0.00000E+000	1.60008E+000	0.00000E+000	8	...........	1489.84
	841	4200	1.60067E+000	5.27230E-005	0.00000E+000	1.60008E+000	0.00000E+000	8	...........	1489.83
	842	4205	1.60067E+000	5.22268E-005	0.00000E+000	1.60008E+000	0.00000E+000	8	...........	1489.88
	843	4210	1.60067E+000	5.24979E-005	0.00000E+000	1.60008E+000	0.00000E+000	8	...........	1489.79
	844	4215	1.60067E+000	5.24287E-005	0.00000E+000	1.60008E+000	0.00000E+000	8	...........	1489.79
	845	4220	1.60067E+000	5.25648E-005	0.00000E+000	1.60008E+000	0.00000E+000	8	...........	1489.79
	846	4225	1.60067E+000	5.20865E-005	0.00000E+000	1.60008E+000	0.00000E+000	8	...........	1489.79
	847	4230	1.60067E+000	5.26758E-005	0.00000E+000	1.60008E+000	0.00000E+000	8	...........	1489.79
	848	4235	1.60067E+000	5.22607E-005	0.00000E+000	1.60008E+000	0.00000E+000	8	...........	1489.79
	849	4240	1.60067E+000	5.24665E-005	0.00000E+000	1.60008E+000	0.00000E+000	8	...........	1489.79
	850	4245	1.60067E+000	5.21646E-005	0.00000E+000	1.60008E+000	0.00000E+000	8	...........	1489.79
	851	4250	1.60067E+000	5.28481E-005	0.00000E+000	1.60008E+000	0.00000E+000	8	...........	1489.79
	852	4255	1.60067E+000	5.26817E-005	0.00000E+000	1.60008E+000	0.00000E+000	8	...........	1489.79
	853	4260	1.60066E+000	5.25370E-005	0.00000E+000	1.60008E+000	0.00000E+000	8	...........	1489.79
	854	4265	1.60067E+000	5.24578E-005	0.00000E+000	1.60008E+000	0.00000E+000	8	...........	1489.79
	855	4270	1.60067E+000	5.25416E-005	0.00000E+000	1.60008E+000	0.00000E+000	8	...........	1489.79
	856	4275	1.60067E+000	5.24058E-005	0.00000E+000	1.60008E+000	0.00000E+000	8	...........	1489.79
	857	4280	1.60066E+000	5.22494E-005	0.00000E+000	1.60008E+000	0.00000E+000	8	...........	1489.79
	858	4285	1.60067E+000	5.25435E-005	0.00000E+000	1.60008E+000	0.00000E+000	8	...........	1489.79
	859	4290	1.60067E+000	5.19291E-005	0.00000E+000	1.60008E+000	0.00000E+000	8	...........	1489.79
	860	4295	1.60067E+000	5.20417E-005	0.00000E+000	1.60008E+000	0.00000E+000	8	...........	1489.79
	861	4300	1.60067E+000	5.24889E-005	0.00000E+000	1.60008E+000	0.00000E+000	8	...........	1489.79
	862	4305	1.60067E+000	5.24318E-005	0.00000E+000	1.60008E+000	0.00000E+000	8	...........	1489.88
	863	4310	1.60067E+000	5.23924E-005	0.00000E+000	1.60008E+000	0.00000E+000	8	...........	1489.83
	864	4315	1.60067E+000	5.23008E-005	0.00000E+000	1.60008E+000	0.00000E+000	8	...........	1489.79
	865	4320	1.60067E+000	5.24685E-005	0.00000E+000	1.60008E+000	0.00000E+000	8	...........	1489.79
	866	4325	1.60067E+000	5.22778E-005	0.00000E+000	1.60008E+000	0.00000E+000	8	...........	1489.79
	867	4330	1.60067E+000	5.21192E-005	0.00000E+000	1.60008E+000	0.00000E+000	8	...........	1489.79
	868	4335	1.60067E+000	5.21751E-005	0.00000E+000	1.60008E+000	0.00000E+000	8	...........	1489.79
	869	4340	1.60067E+000	5.20758E-005	0.00000E+000	1.60008E+000	0.00000E+000	8	...........	1489.79
	870	4345	1.60067E+000	5.20881E-005	0.00000E+000	1.60008E+000	0.00000E+000	8	...........	1489.79
	871	4350	1.60067E+000	5.19465E-005	0.00000E+000	1.60008E+000	0.00000E+000	8	...........	1489.79
	872	4355	1.60066E+000	5.21376E-005	0.00000E+000	1.60008E+000	0.00000E+000	8	...........	1489.79
	873	4360	1.60067E+000	5.23606E-005	0.00000E+000	1.60008E+000	0.00000E+000	8	...........	1489.79
	874	4365	1.60067E+000	5.21943E-005	0.00000E+000	1.60008E+000	0.00000E+000	8	...........	1489.79
	875	4370	1.60067E+000	5.23046E-005	0.00000E+000	1.60008E+000	0.00000E+000	8	...........	1489.83
	876	4375	1.60067E+000	5.18454E-005	0.00000E+000	1.60008E+000	0.00000E+000	8	...........	1489.79
	877	4380	1.60067E+000	5.17292E-005	0.00000E+000	1.60008E+000	0.00000E+000	8	...........	1489.79
	878	4385	1.60067E+000	5.17613E-005	0.00000E+000	1.60008E+000	0.00000E+000	8	...........	1489.79
	879	4390	1.60067E+000	5.17323E-005	0.00000E+000	1.60008E+000	0.00000E+000	8	...........	1489.79
	880	4395	1.60067E+000	5.16299E-005	0.00000E+000	1.60008E+000	0.00000E+000	8	...........	1489.79
	881	4400	1.60067E+000	5.22702E-005	0.00000E+000	1.60008E+000	0.00000E+000	8	...........	1489.79
	882	4405	1.60067E+000	5.20584E-005	0.00000E+000	1.60008E+000	0.00000E+000	8	...........	1489.79
	883	4410	1.60067E+000	5.17967E-005	0.00000E+000	1.60008E+000	0.00000E+000	8	...........	1489.79
	884	4415	1.60067E+000	5.23621E-005	0.00000E+000	1.60008E+000	0.00000E+000	8	...........	1489.79
	885	4420	1.60067E+000	5.20253E-005	0.00000E+000	1.60008E+000	0.00000E+000	8	...........	1489.79
	886	4425	1.60067E+000	5.18609E-005	0.00000E+000	1.60008E+000	0.00000E+000	8	...........	1489.79
	887	4430	1.60067E+000	5.16252E-005	0.00000E+000	1.60008E+000	0.00000E+000	8	...........	1489.83
	888	4435	1.60067E+000	5.22173E-005	0.00000E+000	1.60008E+000	0.00000E+000	8	...........	1489.83
	889	4440	1.60067E+000	5.19469E-005	0.00000E+000	1.60008E+000	0.00000E+000	8	...........	1489.79
	890	4445	1.60067E+000	5.15625E-005	0.00000E+000	1.60008E+000	0.00000E+000	8	...........	1489.79
	891	4450	1.60067E+000	5.15738E-005	0.00000E+000	1.60008E+000	0.00000E+000	8	...........	1489.79
	892	4455	1.60067E+000	5.19032E-005	0.00000E+000	1.60008E+000	0.00000E+000	8	...........	1489.79
	893	4460	1.60067E+000	5.16485E-005	0.00000E+000	1.60008E+000	0.00000E+000	8	...........	1489.79
	894	4465	1.60067E+000	5.15376E-005	0.00000E+000	1.60008E+000	0.00000E+000	8	...........	1489.79
	895	4470	1.60067E+000	5.13221E-005	0.00000E+000	1.60008E+000	0.00000E+000	8	...........	1489.84
	896	4475	1.60068E+000	5.14482E-005	0.00000E+000	1.60008E+000	0.00000E+000	8	...........	1489.83
	897	4480	1.60067E+000	5.17687E-005	0.00000E+000	1.60008E+000	0.00000E+000	8	...........	1489.79
	898	4485	1.60068E+000	5.15346E-005	0.00000E+000	1.60008E+000	0.00000E+000	8	...........	1489.79
	899	4490	1.60067E+000	5.13162E-005	0.00000E+000	1.60008E+000	0.00000E+000	8	...........	1489.84
	900	4495	1.60067E+000	5.13949E-005	0.00000E+000	1.60008E+000	0.00000E+000	8	...........	1489.79
	901	4500	1.60067E+000	5.13885E-005	0.00000E+000	1.60008E+000	0.00000E+000	8	...........	1489.79
	902	4505	1.60067E+000	5.23719E-005	0.00000E+000	1.60008E+000	0.00000E+000	8	...........	1489.79
	903	4510	1.60067E+000	5.31525E-005	0.00000E+000	1.60008E+000	0.00000E+000	8	...........	1489.79
	904	4515	1.60067E+000	5.14450E-005	0.00000E+000	1.60008E+000	0.00000E+000	8	...........	1489.79
	905	4520	1.60067E+000	5.13619E-005	0.00000E+000	1.60008E+000	0.00000E+000	8	...........	1489.79
	906	4525	1.60067E+000	5.14925E-005	0.00000E+000	1.60008E+000	0.00000E+000	8	...........	1489.79
	907	4530	1.60067E+000	5.10539E-005	0.00000E+000	1.60008E+000	0.00000E+000	8	...........	1489.79
	908	4535	1.60068E+000	5.16040E-005	0.00000E+000	1.60008E+000	0.00000E+000	8	...........	1489.79
	909	4540	1.60067E+000	5.14363E-005	0.00000E+000	1.60008E+000	0.00000E+000	8	...........	1489.84
	910	4545	1.60067E+000	5.15059E-005	0.00000E+000	1.60008E+000	0.00000E+000	8	...........	1489.79
	911	4550	1.60067E+000	5.09477E-005	0.00000E+000	1.60008E+000	0.00000E+000	8	...........	1489.79
	912	4555	1.60067E+000	5.13363E-005	0.00000E+000	1.60008E+000	0.00000E+000	8	...........	1489.79
	913	4560	1.60067E+000	5.09410E-005	0.00000E+000	1.60008E+000	0.00000E+000	8	...........	1489.79
	914	4565	1.60068E+000	5.07480E-005	0.00000E+000	1.60008E+000	0.00000E+000	8	...........	1489.79
	915	4570	1.60068E+000	5.10576E-005	0.00000E+000	1.60008E+000	0.00000E+000	8	...........	1489.79
	916	4575	1.60067E+000	5.10754E-005	0.00000E+000	1.60008E+000	0.00000E+000	8	...........	1489.79
	917	4580	1.60068E+000	5.16810E-005	0.00000E+000	1.60008E+000	0.00000E+000	8	...........	1489.79
	918	4585	1.60067E+000	5.10846E-005	0.00000E+000	1.60008E+000	0.00000E+000	8	...........	1489.79
	919	4590	1.60067E+000	5.15121E-005	0.00000E+000	1.60008E+000	0.00000E+000	8	...........	1489.79
	920	4595	1.60067E+000	5.09680E-005	0.00000E+000	1.60008E+000	0.00000E+000	8	...........	1489.83
	921	4600	1.60067E+000	5.13062E-005	0.00000E+000	1.60008E+000	0.00000E+000	8	...........	1489.79
	922	4605	1.60067E+000	5.10621E-005	0.00000E+000	1.60008E+000	0.00000E+000	8	...........	1489.79
	923	4610	1.60067E+000	5.07524E-005	0.00000E+000	1.60008E+000	0.00000E+000	8	...........	1489.79
	924	4615	1.60067E+000	5.08210E-005	0.00000E+000	1.60008E+000	0.00000E+000	8	...........	1489.79
	925	4620	1.60067E+000	5.08321E-005	0.00000E+000	1.60008E+000	0.00000E+000	8	...........	1489.79
	926	4625	1.60067E+000	5.08592E-005	0.00000E+000	1.60008E+000	0.00000E+000	8	...........	1489.79
	927	4630	1.60067E+000	5.13178E-005	0.00000E+000	1.60008E+000	0.00000E+000	8	...........	1489.79
	928	4635	1.60067E+000	5.09027E-005	0.00000E+000	1.60008E+000	0.00000E+000	8	...........	1489.79
	929	4640	1.60067E+000	5.12352E-005	0.00000E+000	1.60008E+000	0.00000E+000	8	...........	1489.79
	930	4645	1.60067E+000	5.08731E-005	0.00000E+000	1.60008E+000	0.00000E+000	8	...........	1489.79
	931	4650	1.60067E+000	5.05155E-005	0.00000E+000	1.60008E+000	0.00000E+000	8	...........	1489.79
	932	4655	1.60067E+000	5.07735E-005	0.00000E+000	1.60008E+000	0.00000E+000	8	...........	1489.79
	933	4660	1.60067E+000	5.08028E-005	0.00000E+000	1.60008E+000	0.00000E+000	8	...........	1489.79
	934	4665	1.60068E+000	5.06937E-005	0.00000E+000	1.60008E+000	0.00000E+000	8	...........	1489.79
	935	4670	1.60067E+000	5.09566E-005	0.00000E+000	1.60008E+000	0.00000E+000	8	...........	1489.79
	936	4675	1.60067E+000	5.08156E-005	0.00000E+000	1.60008E+000	0.00000E+000	8	...........	1489.79
	937	4680	1.60067E+000	5.04169E-005	0.00000E+000	1.60008E+000	0.00000E+000	8	...........	1489.79
	938	4685	1.60067E+000	5.06653E-005	0.00000E+000	1.60008E+000	0.00000E+000	8	...........	1489.79
	939	4690	1.60067E+000	5.07196E-005	0.00000E+000	1.60008E+000	0.00000E+000	8	...........	1489.79
	940	4695	1.60068E+000	5.05804E-005	0.00000E+000	1.60008E+000	0.00000E+000	8	...........	1489.79
	941	4700	1.60067E+000	5.07736E-005	0.00000E+000	1.60008E+000	0.00000E+000	8	...........	1489.79
	942	4705	1.60067E+000	5.06141E-005	0.00000E+000	1.60008E+000	0.00000E+000	8	...........	1489.79
	943	4710	1.60067E+000	5.05726E-005	0.00000E+000	1.60008E+000	0.00000E+000	8	...........	1489.79
	944	4715	1.60067E+000	5.05206E-005	0.00000E+000	1.60008E+000	0.00000E+000	8	...........	1489.79
	945	4720	1.60067E+000	5.05151E-005	0.00000E+000	1.60008E+000	0.00000E+000	8	...........	1489.79
	946	4725	1.60067E+000	5.02717E-005	0.00000E+000	1.60008E+000	0.00000E+000	8	...........	1489.79
	947	4730	1.60067E+000	5.05022E-005	0.00000E+000	1.60008E+000	0.00000E+000	8	...........	1489.79
	948	4735	1.60067E+000	5.03394E-005	0.00000E+000	1.60008E+000	0.00000E+000	8	...........	1489.79
	949	4740	1.60067E+000	5.03593E-005	0.00000E+000	1.60008E+000	0.00000E+000	8	...........	1489.79
	950	4745	1.60067E+000	5.02422E-005	0.00000E+000	1.60008E+000	0.00000E+000	8	...........	1489.79
	951	4750	1.60067E+000	5.03867E-005	0.00000E+000	1.60008E+000	0.00000E+000	8	...........	1489.79
	952	4755	1.60067E+000	5.04195E-005	0.00000E+000	1.60008E+000	0.00000E+000	8	...........	1489.79
	953	4760	1.60067E+000	5.02305E-005	0.00000E+000	1.60008E+000	0.00000E+000	8	...........	1489.79
	954	4765	1.60066E+000	5.04388E-005	0.00000E+000	1.60008E+000	0.00000E+000	8	...........	1489.79
	955	4770	1.60067E+000	5.03315E-005	0.00000E+000	1.60008E+000	0.00000E+000	8	...........	1489.79
	956	4775	1.60067E+000	5.02763E-005	0.00000E+000	1.60008E+000	0.00000E+000	8	...........	1489.79
	957	4780	1.60067E+000	5.02350E-005	0.00000E+000	1.60008E+000	0.00000E+000	8	...........	1489.79
	958	4785	1.60067E+000	5.00901E-005	0.00000E+000	1.60008E+000	0.00000E+000	8	...........	1489.79
	959	4790	1.60067E+000	5.00729E-005	0.00000E+000	1.60008E+000	0.00000E+000	8	...........	1489.79
	960	4795	1.60067E+000	5.03320E-005	0.00000E+000	1.60008E+000	0.00000E+000	8	...........	1489.79
	961	4800	1.60067E+000	5.04224E-005	0.00000E+000	1.60008E+000	0.00000E+000	8	...........	1489.79
	962	4805	1.60066E+000	5.00591E-005	0.00000E+000	1.60008E+000	0.00000E+000	8	...........	1489.79
	963	4810	1.60067E+000	5.01721E-005	0.00000E+000	1.60008E+000	0.00000E+000	8	...........	1489.79
	964	4815	1.60067E+000	5.09177E-005	0.00000E+000	1.60008E+000	0.00000E+000	8	...........	1489.79
	965	4820	1.60067E+000	5.13952E-005	0.00000E+000	1.60008E+000	0.00000E+000	8	...........	1489.79
	966	4825	1.60067E+000	5.19281E-005	0.00000E+000	1.60008E+000	0.00000E+000	8	...........	1489.79
	967	4830	1.60066E+000	5.07290E-005	0.00000E+000	1.60008E+000	0.00000E+000	8	...........	1489.79
	968	4835	1.60066E+000	4.98402E-005	0.00000E+000	1.60008E+000	0.00000E+000	8	...........	1489.79
	969	4840	1.60066E+000	5.01381E-005	0.00000E+000	1.60008E+000	0.00000E+000	8	...........	1489.79
	970	4845	1.60067E+000	4.99285E-005	0.00000E+000	1.60008E+000	0.00000E+000	8	...........	1489.79
	971	4850	1.60066E+000	4.98160E-005	0.00000E+000	1.60008E+000	0.00000E+000	8	...........	1489.79
	972	4855	1.60066E+000	5.01845E-005	0.00000E+000	1.60008E+000	0.00000E+000	8	...........	1489.79
	973	4860	1.60067E+000	5.00188E-005	0.00000E+000	1.60008E+000	0.00000E+000	8	...........	1489.79
	974	4865	1.60067E+000	5.00804E-005	0.00000E+000	1.60008E+000	0.00000E+000	8	...........	1489.79
	975	4870	1.60066E+000	4.99551E-005	0.00000E+000	1.60008E+000	0.00000E+000	8	...........	1489.79
	976	4875	1.60067E+000	4.96964E-005	0.00000E+000	1.60008E+000	0.00000E+000	8	...........	1489.79
	977	4880	1.60067E+000	4.97588E-005	0.00000E+000	1.60008E+000	0.00000E+000	8	...........	1489.79
	978	4885	1.60067E+000	4.99596E-005	0.00000E+000	1.60008E+000	0.00000E+000	8	...........	1489.79
	979	4890	1.60066E+000	4.98768E-005	0.00000E+000	1.60008E+000	0.00000E+000	8	...........	1489.79
	980	4895	1.60067E+000	4.99601E-005	0.00000E+000	1.60008E+000	0.00000E+000	8	...........	1489.79
	981	4900	1.60067E+000	4.99281E-005	0.00000E+000	1.60008E+000	0.00000E+000	8	...........	1489.79
	982	4905	1.60067E+000	4.98602E-005	0.00000E+000	1.60008E+000	0.00000E+000	8	...........	1489.79
	983	4910	1.60066E+000	4.97870E-005	0.00000E+000	1.60008E+000	0.00000E+000	8	...........	1489.79
	984	4915	1.60066E+000	4.98707E-005	0.00000E+000	1.60008E+000	0.00000E+000	8	...........	1489.79
	985	4920	1.60067E+000	4.96573E-005	0.00000E+000	1.60008E+000	0.00000E+000	8	...........	1489.79
	986	4925	1.60066E+000	4.96531E-005	0.00000E+000	1.60008E+000	0.00000E+000	8	...........	1489.79
	987	4930	1.60067E+000	4.97728E-005	0.00000E+000	1.60008E+000	0.00000E+000	8	...........	1489.79
	988	4935	1.60067E+000	4.97042E-005	0.00000E+000	1.60008E+000	0.00000E+000	8	...........	1489.79
	989	4940	1.60067E+000	4.97172E-005	0.00000E+000	1.60008E+000	0.00000E+000	8	...........	1489.79
	990	4945	1.60067E+000	4.98924E-005	0.00000E+000	1.60008E+000	0.00000E+000	8	...........	1489.79
	991	4950	1.60067E+000	4.98565E-005	0.00000E+000	1.60008E+000	0.00000E+000	8	...........	1489.79
	992	4955	1.60066E+000	4.96961E-005	0.00000E+000	1.60008E+000	0.00000E+000	8	...........	1489.79
	993	4960	1.60067E+000	4.95743E-005	0.00000E+000	1.60008E+000	0.00000E+000	8	...........	1489.79
	994	4965	1.60066E+000	4.96414E-005	0.00000E+000	1.60008E+000	0.00000E+000	8	...........	1489.79
	995	4970	1.60068E+000	4.97024E-005	0.00000E+000	1.60008E+000	0.00000E+000	8	...........	1489.79
	996	4975	1.60067E+000	4.96129E-005	0.00000E+000	1.60008E+000	0.00000E+000	8	...........	1489.79
	997	4980	1.60066E+000	4.96970E-005	0.00000E+000	1.60008E+000	0.00000E+000	8	...........	1489.79
	998	4985	1.60067E+000	4.97517E-005	0.00000E+000	1.60008E+000	0.00000E+000	8	...........	1489.79
	999	4990	1.60067E+000	4.96138E-005	0.00000E+000	1.60008E+000	0.00000E+000	8	...........	1489.79
	1000	4995	1.60067E+000	4.92868E-005	0.00000E+000	1.60008E+000	0.00000E+000	8	...........	1489.79
	1001	5000	1.60066E+000	4.97168E-005	0.00000E+000	1.60008E+000	0.00000E+000	8	...........	1489.79
	1002	5005	1.60067E+000	4.95733E-005	0.00000E+000	1.60008E+000	0.00000E+000	8	...........	1489.79
	1003	5010	1.60067E+000	4.95165E-005	0.00000E+000	1.60008E+000	0.00000E+000	8	...........	1489.79
	1004	5015	1.60067E+000	4.96798E-005	0.00000E+000	1.60008E+000	0.00000E+000	8	...........	1489.79
	1005	5020	1.60067E+000	4.96346E-005	0.00000E+000	1.60008E+000	0.00000E+000	8	...........	1489.79
	1006	5025	1.60067E+000	4.93000E-005	0.00000E+000	1.60008E+000	0.00000E+000	8	...........	1489.79
	1007	5030	1.60066E+000	4.94483E-005	0.00000E+000	1.60008E+000	0.00000E+000	8	...........	1489.79
	1008	5035	1.60067E+000	4.89630E-005	0.00000E+000	1.60008E+000	0.00000E+000	8	...........	1489.79
	1009	5040	1.60067E+000	4.97002E-005	0.00000E+000	1.60008E+000	0.00000E+000	8	...........	1489.79
	1010	5045	1.60066E+000	4.95730E-005	0.00000E+000	1.60008E+000	0.00000E+000	8	...........	1489.79
	1011	5050	1.60066E+000	4.93435E-005	0.00000E+000	1.60008E+000	0.00000E+000	8	...........	1489.79
	1012	5055	1.60067E+000	4.97299E-005	0.00000E+000	1.60008E+000	0.00000E+000	8	...........	1489.79
	1013	5060	1.60066E+000	4.98810E-005	0.00000E+000	1.60008E+000	0.00000E+000	8	...........	1489.79
	1014	5065	1.60067E+000	4.93626E-005	0.00000E+000	1.60008E+000	0.00000E+000	8	...........	1489.79
	1015	5070	1.60067E+000	4.91732E-005	0.00000E+000	1.60008E+000	0.00000E+000	8	...........	1489.79
	1016	5075	1.60067E+000	4.96547E-005	0.00000E+000	1.60008E+000	0.00000E+000	8	...........	1489.79
	1017	5080	1.60067E+000	4.96357E-005	0.00000E+000	1.60008E+000	0.00000E+000	8	...........	1489.79
	1018	5085	1.60067E+000	4.92427E-005	0.00000E+000	1.60008E+000	0.00000E+000	8	...........	1489.79
	1019	5090	1.60067E+000	4.90075E-005	0.00000E+000	1.60008E+000	0.00000E+000	8	...........	1489.79
	1020	5095	1.60067E+000	4.91289E-005	0.00000E+000	1.60008E+000	0.00000E+000	8	...........	1489.79
	1021	5100	1.60066E+000	4.92560E-005	0.00000E+000	1.60008E+000	0.00000E+000	8	...........	1489.79
	1022	5105	1.60067E+000	4.94341E-005	0.00000E+000	1.60008E+000	0.00000E+000	8	...........	1489.79
	1023	5110	1.60067E+000	4.94429E-005	0.00000E+000	1.60008E+000	0.00000E+000	8	...........	1489.79
	1024	5115	1.60067E+000	4.98472E-005	0.00000E+000	1.60008E+000	0.00000E+000	8	...........	1489.79
	1025	5120	1.60067E+000	4.92617E-005	0.00000E+000	1.60008E+000	0.00000E+000	8	...........	1489.79
	1026	5125	1.60067E+000	4.94500E-005	0.00000E+000	1.60008E+000	0.00000E+000	8	...........	1489.79
	1027	5130	1.60067E+000	4.96610E-005	0.00000E+000	1.60008E+000	0.00000E+000	8	...........	1489.79
	1028	5135	1.60067E+000	4.93040E-005	0.00000E+000	1.60008E+000	0.00000E+000	8	...........	1489.79
	1029	5140	1.60066E+000	4.91624E-005	0.00000E+000	1.60008E+000	0.00000E+000	8	...........	1489.79
	1030	5145	1.60067E+000	4.95853E-005	0.00000E+000	1.60008E+000	0.00000E+000	8	...........	1489.79
	1031	5150	1.60066E+000	4.91059E-005	0.00000E+000	1.60008E+000	0.00000E+000	8	...........	1489.79
	1032	5155	1.60067E+000	4.91704E-005	0.00000E+000	1.60008E+000	0.00000E+000	8	...........	1489.79
	1033	5160	1.60066E+000	4.92060E-005	0.00000E+000	1.60008E+000	0.00000E+000	8	...........	1489.79
	1034	5165	1.60066E+000	4.88304E-005	0.00000E+000	1.60008E+000	0.00000E+000	8	...........	1489.79
	1035	5170	1.60067E+000	5.01378E-005	0.00000E+000	1.60008E+000	0.00000E+000	8	...........	1489.79
	1036	5175	1.60067E+000	5.04944E-005	0.00000E+000	1.60008E+000	0.00000E+000	8	...........	1489.79
	1037	5180	1.60067E+000	4.94870E-005	0.00000E+000	1.60008E+000	0.00000E+000	8	...........	1489.79
	1038	5185	1.60068E+000	4.91249E-005	0.00000E+000	1.60008E+000	0.00000E+000	8	...........	1489.79
	1039	5190	1.60067E+000	4.95331E-005	0.00000E+000	1.60008E+000	0.00000E+000	8	...........	1489.79
	1040	5195	1.60066E+000	4.90948E-005	0.00000E+000	1.60008E+000	0.00000E+000	8	...........	1489.79
	1041	5200	1.60067E+000	4.92123E-005	0.00000E+000	1.60008E+000	0.00000E+000	8	...........	1489.79
	1042	5205	1.60066E+000	4.89677E-005	0.00000E+000	1.60008E+000	0.00000E+000	8	...........	1489.79
	1043	5210	1.60067E+000	4.91326E-005	0.00000E+000	1.60008E+000	0.00000E+000	8	...........	1489.79
	1044	5215	1.60067E+000	4.88660E-005	0.00000E+000	1.60008E+000	0.00000E+000	8	...........	1489.79
	1045	5220	1.60067E+000	4.85174E-005	0.00000E+000	1.60008E+000	0.00000E+000	8	...........	1489.79
	1046	5225	1.60067E+000	4.93249E-005	0.00000E+000	1.60008E+000	0.00000E+000	8	...........	1489.79
	1047	5230	1.60067E+000	4.89229E-005	0.00000E+000	1.60008E+000	0.00000E+000	8	...........	1489.79
	1048	5235	1.60067E+000	4.90060E-005	0.00000E+000	1.60008E+000	0.00000E+000	8	...........	1489.79
	1049	5240	1.60067E+000	4.88469E-005	0.00000E+000	1.60008E+000	0.00000E+000	8	...........	1489.79
	1050	5245	1.60067E+000	4.88640E-005	0.00000E+000	1.60008E+000	0.00000E+000	8	...........	1489.79
	1051	5250	1.60067E+000	4.85364E-005	0.00000E+000	1.60008E+000	0.00000E+000	8	...........	1489.79
	1052	5255	1.60067E+000	4.86947E-005	0.00000E+000	1.60008E+000	0.00000E+000	8	...........	1489.79
	1053	5260	1.60067E+000	5.02735E-005	0.00000E+000	1.60008E+000	0.00000E+000	8	...........	1489.79
	1054	5265	1.60066E+000	4.84396E-005	0.00000E+000	1.60008E+000	0.00000E+000	8	...........	1489.79
	1055	5270	1.60067E+000	4.77110E-005	0.00000E+000	1.60008E+000	0.00000E+000	8	...........	1489.79
	1056	5275	1.60067E+000	4.85288E-005	0.00000E+000	1.60008E+000	0.00000E+000	8	...........	1489.79
	1057	5280	1.60067E+000	4.84529E-005	0.00000E+000	1.60008E+000	0.00000E+000	8	...........	1489.79
	1058	5285	1.60067E+000	4.85741E-005	0.00000E+000	1.60008E+000	0.00000E+000	8	...........	1489.79
	1059	5290	1.60068E+000	4.86999E-005	0.00000E+000	1.60008E+000	0.00000E+000	8	...........	1489.79
	1060	5295	1.60067E+000	4.87419E-005	0.00000E+000	1.60008E+000	0.00000E+000	8	...........	1489.79
	1061	5300	1.60066E+000	4.88468E-005	0.00000E+000	1.60008E+000	0.00000E+000	8	...........	1489.79
	1062	5305	1.60067E+000	4.85910E-005	0.00000E+000	1.60008E+000	0.00000E+000	8	...........	1489.79
	1063	5310	1.60067E+000	4.86512E-005	0.00000E+000	1.60008E+000	0.00000E+000	8	...........	1489.79
	1064	5315	1.60067E+000	4.86246E-005	0.00000E+000	1.60008E+000	0.00000E+000	8	...........	1489.79
	1065	5320	1.60067E+000	4.84151E-005	0.00000E+000	1.60008E+000	0.00000E+000	8	...........	1489.79
	1066	5325	1.60067E+000	4.85601E-005	0.00000E+000	1.60008E+000	0.00000E+000	8	...........	1489.79
	1067	5330	1.60067E+000	4.87552E-005	0.00000E+000	1.60008E+000	0.00000E+000	8	...........	1489.79
	1068	5335	1.60067E+000	4.83597E-005	0.00000E+000	1.60008E+000	0.00000E+000	8	...........	1489.79
	1069	5340	1.60067E+000	4.88784E-005	0.00000E+000	1.60008E+000	0.00000E+000	8	...........	1489.79
	1070	5345	1.60067E+000	4.89511E-005	0.00000E+000	1.60008E+000	0.00000E+000	8	...........	1489.79
	1071	5350	1.60067E+000	4.89580E-005	0.00000E+000	1.60008E+000	0.00000E+000	8	...........	1489.79
	1072	5355	1.60066E+000	4.81712E-005	0.00000E+000	1.60008E+000	0.00000E+000	8	...........	1489.79
	1073	5360	1.60067E+000	4.84789E-005	0.00000E+000	1.60008E+000	0.00000E+000	8	...........	1489.79
	1074	5365	1.60067E+000	4.83809E-005	0.00000E+000	1.60008E+000	0.00000E+000	8	...........	1489.79
	1075	5370	1.60067E+000	4.80807E-005	0.00000E+000	1.60008E+000	0.00000E+000	8	...........	1489.79
	1076	5375	1.60066E+000	4.83244E-005	0.00000E+000	1.60008E+000	0.00000E+000	8	...........	1489.79
	1077	5380	1.60066E+000	4.84980E-005	0.00000E+000	1.60008E+000	0.00000E+000	8	...........	1489.79
	1078	5385	1.60067E+000	4.87549E-005	0.00000E+000	1.60008E+000	0.00000E+000	8	...........	1489.79
	1079	5390	1.60067E+000	4.82773E-005	0.00000E+000	1.60008E+000	0.00000E+000	8	...........	1489.79
	1080	5395	1.60067E+000	4.79114E-005	0.00000E+000	1.60008E+000	0.00000E+000	8	...........	1489.79
	1081	5400	1.60067E+000	4.84389E-005	0.00000E+000	1.60008E+000	0.00000E+000	8	...........	1489.79
	1082	5405	1.60067E+000	4.84558E-005	0.00000E+000	1.60008E+000	0.00000E+000	8	...........	1489.79
	1083	5410	1.60067E+000	4.85387E-005	0.00000E+000	1.60008E+000	0.00000E+000	8	...........	1489.79
	1084	5415	1.60067E+000	4.78146E-005	0.00000E+000	1.60008E+000	0.00000E+000	8	...........	1489.79
	1085	5420	1.60067E+000	4.81152E-005	0.00000E+000	1.60008E+000	0.00000E+000	8	...........	1489.79
	1086	5425	1.60067E+000	4.79987E-005	0.00000E+000	1.60008E+000	0.00000E+000	8	...........	1489.79
	1087	5430	1.60067E+000	4.79743E-005	0.00000E+000	1.60008E+000	0.00000E+000	8	...........	1489.79
	1088	5435	1.60067E+000	4.82323E-005	0.00000E+000	1.60008E+000	0.00000E+000	8	...........	1489.79
	1089	5440	1.60067E+000	4.86970E-005	0.00000E+000	1.60008E+000	0.00000E+000	8	...........	1489.79
	1090	5445	1.60067E+000	4.83551E-005	0.00000E+000	1.60008E+000	0.00000E+000	8	...........	1489.79
	1091	5450	1.60067E+000	4.82964E-005	0.00000E+000	1.60008E+000	0.00000E+000	8	...........	1489.79
	1092	5455	1.60067E+000	4.84319E-005	0.00000E+000	1.60008E+000	0.00000E+000	8	...........	1489.79
	1093	5460	1.60067E+000	4.85148E-005	0.00000E+000	1.60008E+000	0.00000E+000	8	...........	1489.79
	1094	5465	1.60067E+000	4.84382E-005	0.00000E+000	1.60008E+000	0.00000E+000	8	...........	1489.79
	1095	5470	1.60067E+000	4.83699E-005	0.00000E+000	1.60008E+000	0.00000E+000	8	...........	1489.79
	1096	5475	1.60067E+000	4.79611E-005	0.00000E+000	1.60008E+000	0.00000E+000	8	...........	1489.79
	1097	5480	1.60067E+000	4.80158E-005	0.00000E+000	1.60008E+000	0.00000E+000	8	...........	1489.79
	1098	5485	1.60067E+000	4.87366E-005	0.00000E+000	1.60008E+000	0.00000E+000	8	...........	1489.79
	1099	5490	1.60067E+000	4.84044E-005	0.00000E+000	1.60008E+000	0.00000E+000	8	...........	1489.79
	1100	5495	1.60067E+000	4.80643E-005	0.00000E+000	1.60008E+000	0.00000E+000	8	...........	1489.79
	1101	5500	1.60067E+000	4.78084E-005	0.00000E+000	1.60008E+000	0.00000E+000	8	...........	1489.79
	1102	5505	1.60067E+000	4.79283E-005	0.00000E+000	1.60008E+000	0.00000E+000	8	...........	1489.79
	1103	5510	1.60068E+000	4.77007E-005	0.00000E+000	1.60008E+000	0.00000E+000	8	...........	1489.79
	1104	5515	1.60067E+000	4.78741E-005	0.00000E+000	1.60008E+000	0.00000E+000	8	...........	1489.79
	1105	5520	1.60067E+000	4.80969E-005	0.00000E+000	1.60008E+000	0.00000E+000	8	...........	1489.79
	1106	5525	1.60067E+000	4.79586E-005	0.00000E+000	1.60008E+000	0.00000E+000	8	...........	1489.79
	1107	5530	1.60067E+000	4.73468E-005	0.00000E+000	1.60008E+000	0.00000E+000	8	...........	1489.79
	1108	5535	1.60067E+000	4.76067E-005	0.00000E+000	1.60008E+000	0.00000E+000	8	...........	1489.79
	1109	5540	1.60067E+000	4.74437E-005	0.00000E+000	1.60008E+000	0.00000E+000	8	...........	1489.79
	1110	5545	1.60067E+000	4.74663E-005	0.00000E+000	1.60008E+000	0.00000E+000	8	...........	1489.79
	1111	5550	1.60066E+000	4.75952E-005	0.00000E+000	1.60008E+000	0.00000E+000	8	...........	1489.79
	1112	5555	1.60067E+000	4.75311E-005	0.00000E+000	1.60008E+000	0.00000E+000	8	...........	1489.79
	1113	5560	1.60067E+000	4.74068E-005	0.00000E+000	1.60008E+000	0.00000E+000	8	...........	1489.79
	1114	5565	1.60066E+000	4.73822E-005	0.00000E+000	1.60008E+000	0.00000E+000	8	...........	1489.79
	1115	5570	1.60066E+000	4.74955E-005	0.00000E+000	1.60008E+000	0.00000E+000	8	...........	1489.79
	1116	5575	1.60067E+000	4.79679E-005	0.00000E+000	1.60008E+000	0.00000E+000	8	...........	1489.79
	1117	5580	1.60067E+000	4.76963E-005	0.00000E+000	1.60008E+000	0.00000E+000	8	...........	1489.79
	1118	5585	1.60067E+000	4.73554E-005	0.00000E+000	1.60008E+000	0.00000E+000	8	...........	1489.79
	1119	5590	1.60067E+000	4.74764E-005	0.00000E+000	1.60008E+000	0.00000E+000	8	...........	1489.79
	1120	5595	1.60067E+000	4.75363E-005	0.00000E+000	1.60008E+000	0.00000E+000	8	...........	1489.79
	1121	5600	1.60067E+000	4.74557E-005	0.00000E+000	1.60008E+000	0.00000E+000	8	...........	1489.79
	1122	5605	1.60067E+000	4.74403E-005	0.00000E+000	1.60008E+000	0.00000E+000	8	...........	1489.74
	1123	5610	1.60067E+000	4.77466E-005	0.00000E+000	1.60008E+000	0.00000E+000	8	...........	1489.79
	1124	5615	1.60067E+000	4.79137E-005	0.00000E+000	1.60008E+000	0.00000E+000	8	...........	1489.79
	1125	5620	1.60067E+000	4.80678E-005	0.00000E+000	1.60008E+000	0.00000E+000	8	...........	1489.79
	1126	5625	1.60066E+000	4.76354E-005	0.00000E+000	1.60008E+000	0.00000E+000	8	...........	1489.79
	1127	5630	1.60067E+000	4.77690E-005	0.00000E+000	1.60008E+000	0.00000E+000	8	...........	1489.79
	1128	5635	1.60067E+000	4.81491E-005	0.00000E+000	1.60008E+000	0.00000E+000	8	...........	1489.79
	1129	5640	1.60067E+000	4.76374E-005	0.00000E+000	1.60008E+000	0.00000E+000	8	...........	1489.79
	1130	5645	1.60066E+000	4.77016E-005	0.00000E+000	1.60008E+000	0.00000E+000	8	...........	1489.79
	1131	5650	1.60066E+000	4.80386E-005	0.00000E+000	1.60008E+000	0.00000E+000	8	...........	1489.79
	1132	5655	1.60066E+000	4.74668E-005	0.00000E+000	1.60008E+000	0.00000E+000	8	...........	1489.79
	1133	5660	1.60067E+000	4.76265E-005	0.00000E+000	1.60008E+000	0.00000E+000	8	...........	1489.79
	1134	5665	1.60066E+000	4.73475E-005	0.00000E+000	1.60008E+000	0.00000E+000	8	...........	1489.79
	1135	5670	1.60067E+000	4.71943E-005	0.00000E+000	1.60008E+000	0.00000E+000	8	...........	1489.79
	1136	5675	1.60067E+000	4.69181E-005	0.00000E+000	1.60008E+000	0.00000E+000	8	...........	1489.79
	1137	5680	1.60067E+000	4.69578E-005	0.00000E+000	1.60008E+000	0.00000E+000	8	...........	1489.79
	1138	5685	1.60067E+000	4.67632E-005	0.00000E+000	1.60008E+000	0.00000E+000	8	...........	1489.79
	1139	5690	1.60067E+000	4.74099E-005	0.00000E+000	1.60008E+000	0.00000E+000	8	...........	1489.79
	1140	5695	1.60066E+000	4.76281E-005	0.00000E+000	1.60008E+000	0.00000E+000	8	...........	1489.79
	1141	5700	1.60067E+000	4.75607E-005	0.00000E+000	1.60008E+000	0.00000E+000	8	...........	1489.79
	1142	5705	1.60067E+000	4.77294E-005	0.00000E+000	1.60008E+000	0.00000E+000	8	...........	1489.79
	1143	5710	1.60067E+000	4.74515E-005	0.00000E+000	1.60008E+000	0.00000E+000	8	...........	1489.79
	1144	5715	1.60067E+000	4.75275E-005	0.00000E+000	1.60008E+000	0.00000E+000	8	...........	1489.79
	1145	5720	1.60067E+000	4.73873E-005	0.00000E+000	1.60008E+000	0.00000E+000	8	...........	1489.79
	1146	5725	1.60067E+000	4.77063E-005	0.00000E+000	1.60008E+000	0.00000E+000	8	...........	1489.79
	1147	5730	1.60067E+000	4.74940E-005	0.00000E+000	1.60008E+000	0.00000E+000	8	...........	1489.79
	1148	5735	1.60067E+000	4.73828E-005	0.00000E+000	1.60008E+000	0.00000E+000	8	...........	1489.79
	1149	5740	1.60067E+000	4.74480E-005	0.00000E+000	1.60008E+000	0.00000E+000	8	...........	1489.79
	1150	5745	1.60067E+000	4.73807E-005	0.00000E+000	1.60008E+000	0.00000E+000	8	...........	1489.79
	1151	5750	1.60066E+000	4.78081E-005	0.00000E+000	1.60008E+000	0.00000E+000	8	...........	1489.79
	1152	5755	1.60067E+000	4.74951E-005	0.00000E+000	1.60008E+000	0.00000E+000	8	...........	1489.79
	1153	5760	1.60067E+000	4.76358E-005	0.00000E+000	1.60008E+000	0.00000E+000	8	...........	1489.79
	1154	5765	1.60067E+000	4.73081E-005	0.00000E+000	1.60008E+000	0.00000E+000	8	...........	1489.79
	1155	5770	1.60067E+000	4.69291E-005	0.00000E+000	1.60008E+000	0.00000E+000	8	...........	1489.79
	1156	5775	1.60067E+000	4.71129E-005	0.00000E+000	1.60008E+000	0.00000E+000	8	...........	1489.79
	1157	5780	1.60066E+000	4.73660E-005	0.00000E+000	1.60008E+000	0.00000E+000	8	...........	1489.79
	1158	5785	1.60067E+000	4.68893E-005	0.00000E+000	1.60008E+000	0.00000E+000	8	...........	1489.79
	1159	5790	1.60067E+000	4.67819E-005	0.00000E+000	1.60008E+000	0.00000E+000	8	...........	1489.75
	1160	5795	1.60067E+000	4.67725E-005	0.00000E+000	1.60008E+000	0.00000E+000	8	...........	1489.79
	1161	5800	1.60067E+000	4.68654E-005	0.00000E+000	1.60008E+000	0.00000E+000	8	...........	1489.79
	1162	5805	1.60066E+000	4.67705E-005	0.00000E+000	1.60008E+000	0.00000E+000	8	...........	1489.79
	1163	5810	1.60067E+000	4.74900E-005	0.00000E+000	1.60008E+000	0.00000E+000	8	...........	1489.79
	1164	5815	1.60066E+000	4.73366E-005	0.00000E+000	1.60008E+000	0.00000E+000	8	...........	1489.79
	1165	5820	1.60067E+000	4.70710E-005	0.00000E+000	1.60008E+000	0.00000E+000	8	...........	1489.79
	1166	5825	1.60067E+000	4.66858E-005	0.00000E+000	1.60008E+000	0.00000E+000	8	...........	1489.79
	1167	5830	1.60067E+000	4.65047E-005	0.00000E+000	1.60008E+000	0.00000E+000	8	...........	1489.79
	1168	5835	1.60067E+000	4.71435E-005	0.00000E+000	1.60008E+000	0.00000E+000	8	...........	1489.79
	1169	5840	1.60067E+000	4.73787E-005	0.00000E+000	1.60008E+000	0.00000E+000	8	...........	1489.79
	1170	5845	1.60068E+000	4.72746E-005	0.00000E+000	1.60008E+000	0.00000E+000	8	...........	1489.79
	1171	5850	1.60067E+000	4.71978E-005	0.00000E+000	1.60008E+000	0.00000E+000	8	...........	1489.79
	1172	5855	1.60066E+000	4.71817E-005	0.00000E+000	1.60008E+000	0.00000E+000	8	...........	1489.79
	1173	5860	1.60067E+000	4.69582E-005	0.00000E+000	1.60008E+000	0.00000E+000	8	...........	1489.79
	1174	5865	1.60066E+000	4.70665E-005	0.00000E+000	1.60008E+000	0.00000E+000	8	...........	1489.79
	1175	5870	1.60067E+000	4.72223E-005	0.00000E+000	1.60008E+000	0.00000E+000	8	...........	1489.79
	1176	5875	1.60067E+000	4.69686E-005	0.00000E+000	1.60008E+000	0.00000E+000	8	...........	1489.79
	1177	5880	1.60066E+000	4.68807E-005	0.00000E+000	1.60008E+000	0.00000E+000	8	...........	1489.79
	1178	5885	1.60067E+000	4.70099E-005	0.00000E+000	1.60008E+000	0.00000E+000	8	...........	1489.79
	1179	5890	1.60067E+000	4.71229E-005	0.00000E+000	1.60008E+000	0.00000E+000	8	...........	1489.79
	1180	5895	1.60067E+000	4.70400E-005	0.00000E+000	1.60008E+000	0.00000E+000	8	...........	1489.79
	1181	5900	1.60067E+000	4.69575E-005	0.00000E+000	1.60008E+000	0.00000E+000	8	...........	1489.79
	1182	5905	1.60067E+000	4.71564E-005	0.00000E+000	1.60008E+000	0.00000E+000	8	...........	1489.79
	1183	5910	1.60067E+000	4.67768E-005	0.00000E+000	1.60008E+000	0.00000E+000	8	...........	1489.79
	1184	5915	1.60066E+000	4.68429E-005	0.00000E+000	1.60008E+000	0.00000E+000	8	...........	1489.79
	1185	5920	1.60067E+000	4.69465E-005	0.00000E+000	1.60008E+000	0.00000E+000	8	...........	1489.79
	1186	5925	1.60067E+000	4.70251E-005	0.00000E+000	1.60008E+000	0.00000E+000	8	...........	1489.79
	1187	5930	1.60067E+000	4.69909E-005	0.00000E+000	1.60008E+000	0.00000E+000	8	...........	1489.79
	1188	5935	1.60067E+000	4.69510E-005	0.00000E+000	1.60008E+000	0.00000E+000	8	...........	1489.79
	1189	5940	1.60067E+000	4.71197E-005	0.00000E+000	1.60008E+000	0.00000E+000	8	...........	1489.79
	1190	5945	1.60067E+000	4.71484E-005	0.00000E+000	1.60008E+000	0.00000E+000	8	...........	1489.79
	1191	5950	1.60067E+000	4.68986E-005	0.00000E+000	1.60008E+000	0.00000E+000	8	...........	1489.79
	1192	5955	1.60067E+000	4.70077E-005	0.00000E+000	1.60008E+000	0.00000E+000	8	...........	1489.79
	1193	5960	1.60067E+000	4.67654E-005	0.00000E+000	1.60008E+000	0.00000E+000	8	...........	1489.79
	1194	5965	1.60067E+000	4.68619E-005	0.00000E+000	1.60008E+000	0.00000E+000	8	...........	1489.79
	1195	5970	1.60067E+000	4.67853E-005	0.00000E+000	1.60008E+000	0.00000E+000	8	...........	1489.79
	1196	5975	1.60067E+000	4.67639E-005	0.00000E+000	1.60008E+000	0.00000E+000	8	...........	1489.79
	1197	5980	1.60067E+000	4.66781E-005	0.00000E+000	1.60008E+000	0.00000E+000	8	...........	1489.79
	1198	5985	1.60066E+000	4.66173E-005	0.00000E+000	1.60008E+000	0.00000E+000	8	...........	1489.79
	1199	5990	1.60067E+000	4.64359E-005	0.00000E+000	1.60008E+000	0.00000E+000	8	...........	1489.79
	1200	5995	1.60067E+000	4.67294E-005	0.00000E+000	1.60008E+000	0.00000E+000	8	...........	1489.79
	1201	6000	1.60067E+000	4.67696E-005	0.00000E+000	1.60008E+000	0.00000E+000	8	...........	1489.79
	1202	6005	1.60067E+000	4.64226E-005	0.00000E+000	1.60008E+000	0.00000E+000	8	...........	1489.79
	1203	6010	1.60067E+000	4.64048E-005	0.00000E+000	1.60008E+000	0.00000E+000	8	...........	1489.79
	1204	6015	1.60067E+000	4.66208E-005	0.00000E+000	1.60008E+000	0.00000E+000	8	...........	1489.79
	1205	6020	1.60067E+000	4.65421E-005	0.00000E+000	1.60008E+000	0.00000E+000	8	...........	1489.79
	1206	6025	1.60067E+000	4.64557E-005	0.00000E+000	1.60008E+000	0.00000E+000	8	...........	1489.79
	1207	6030	1.60067E+000	4.64108E-005	0.00000E+000	1.60008E+000	0.00000E+000	8	...........	1489.79
	1208	6035	1.60067E+000	4.66438E-005	0.00000E+000	1.60008E+000	0.00000E+000	8	...........	1489.79
	1209	6040	1.60067E+000	4.64769E-005	0.00000E+000	1.60008E+000	0.00000E+000	8	...........	1489.79
	1210	6045	1.60067E+000	4.68577E-005	0.00000E+000	1.60008E+000	0.00000E+000	8	...........	1489.79
	1211	6050	1.60067E+000	4.65411E-005	0.00000E+000	1.60008E+000	0.00000E+000	8	...........	1489.79
	1212	6055	1.60067E+000	4.63124E-005	0.00000E+000	1.60008E+000	0.00000E+000	8	...........	1489.79
	1213	6060	1.60067E+000	4.62620E-005	0.00000E+000	1.60008E+000	0.00000E+000	8	...........	1489.79
	1214	6065	1.60066E+000	4.63849E-005	0.00000E+000	1.60008E+000	0.00000E+000	8	...........	1489.79
	1215	6070	1.60067E+000	4.64899E-005	0.00000E+000	1.60008E+000	0.00000E+000	8	...........	1489.79
	1216	6075	1.60067E+000	4.62626E-005	0.00000E+000	1.60008E+000	0.00000E+000	8	...........	1489.79
	1217	6080	1.60068E+000	4.61035E-005	0.00000E+000	1.60008E+000	0.00000E+000	8	...........	1489.79
	1218	6085	1.60068E+000	4.61701E-005	0.00000E+000	1.60008E+000	0.00000E+000	8	...........	1489.79
	1219	6090	1.60067E+000	4.62853E-005	0.00000E+000	1.60008E+000	0.00000E+000	8	...........	1489.79
	1220	6095	1.60068E+000	4.61187E-005	0.00000E+000	1.60008E+000	0.00000E+000	8	...........	1489.79
	1221	6100	1.60067E+000	4.63139E-005	0.00000E+000	1.60008E+000	0.00000E+000	8	...........	1489.79
	1222	6105	1.60068E+000	4.66527E-005	0.00000E+000	1.60008E+000	0.00000E+000	8	...........	1489.79
	1223	6110	1.60068E+000	4.66156E-005	0.00000E+000	1.60008E+000	0.00000E+000	8	...........	1489.79
	1224	6115	1.60067E+000	4.66277E-005	0.00000E+000	1.60008E+000	0.00000E+000	8	...........	1489.79
	1225	6120	1.60067E+000	4.59746E-005	0.00000E+000	1.60008E+000	0.00000E+000	8	...........	1489.79
	1226	6125	1.60066E+000	4.61011E-005	0.00000E+000	1.60008E+000	0.00000E+000	8	...........	1489.79
	1227	6130	1.60066E+000	4.60803E-005	0.00000E+000	1.60008E+000	0.00000E+000	8	...........	1489.79
	1228	6135	1.60067E+000	4.61311E-005	0.00000E+000	1.60008E+000	0.00000E+000	8	...........	1489.79
	1229	6140	1.60067E+000	4.59016E-005	0.00000E+000	1.60008E+000	0.00000E+000	8	...........	1489.79
	1230	6145	1.60066E+000	4.56851E-005	0.00000E+000	1.60008E+000	0.00000E+000	8	...........	1489.79
	1231	6150	1.60067E+000	4.62573E-005	0.00000E+000	1.60008E+000	0.00000E+000	8	...........	1489.79
	1232	6155	1.60067E+000	4.63418E-005	0.00000E+000	1.60008E+000	0.00000E+000	8	...........	1489.79
	1233	6160	1.60067E+000	4.59956E-005	0.00000E+000	1.60008E+000	0.00000E+000	8	...........	1489.79
	1234	6165	1.60067E+000	4.65219E-005	0.00000E+000	1.60008E+000	0.00000E+000	8	...........	1489.79
	1235	6170	1.60067E+000	4.62638E-005	0.00000E+000	1.60008E+000	0.00000E+000	8	...........	1489.79
	1236	6175	1.60067E+000	4.61033E-005	0.00000E+000	1.60008E+000	0.00000E+000	8	...........	1489.79
	1237	6180	1.60067E+000	4.62369E-005	0.00000E+000	1.60008E+000	0.00000E+000	8	...........	1489.79
	1238	6185	1.60066E+000	4.57517E-005	0.00000E+000	1.60008E+000	0.00000E+000	8	...........	1489.79
	1239	6190	1.60067E+000	4.58669E-005	0.00000E+000	1.60008E+000	0.00000E+000	8	...........	1489.74
	1240	6195	1.60067E+000	4.62473E-005	0.00000E+000	1.60008E+000	0.00000E+000	8	...........	1489.79
	1241	6200	1.60067E+000	4.61542E-005	0.00000E+000	1.60008E+000	0.00000E+000	8	...........	1489.79
	1242	6205	1.60067E+000	4.61800E-005	0.00000E+000	1.60008E+000	0.00000E+000	8	...........	1489.79
	1243	6210	1.60067E+000	4.61563E-005	0.00000E+000	1.60008E+000	0.00000E+000	8	...........	1489.79
	1244	6215	1.60067E+000	4.61307E-005	0.00000E+000	1.60008E+000	0.00000E+000	8	...........	1489.79
	1245	6220	1.60067E+000	4.57023E-005	0.00000E+000	1.60008E+000	0.00000E+000	8	...........	1489.79
	1246	6225	1.60067E+000	4.58067E-005	0.00000E+000	1.60008E+000	0.00000E+000	8	...........	1489.70
	1247	6230	1.60067E+000	4.59210E-005	0.00000E+000	1.60008E+000	0.00000E+000	8	...........	1489.70
	1248	6235	1.60067E+000	4.59366E-005	0.00000E+000	1.60008E+000	0.00000E+000	8	...........	1489.79
	1249	6240	1.60067E+000	4.58396E-005	0.00000E+000	1.60008E+000	0.00000E+000	8	...........	1489.79
	1250	6245	1.60068E+000	4.59235E-005	0.00000E+000	1.60008E+000	0.00000E+000	8	...........	1489.75
	1251	6250	1.60067E+000	4.60383E-005	0.00000E+000	1.60008E+000	0.00000E+000	8	...........	1489.79
	1252	6255	1.60068E+000	4.59498E-005	0.00000E+000	1.60008E+000	0.00000E+000	8	...........	1489.75
	1253	6260	1.60067E+000	4.58891E-005	0.00000E+000	1.60008E+000	0.00000E+000	8	...........	1489.79
	1254	6265	1.60067E+000	4.58257E-005	0.00000E+000	1.60008E+000	0.00000E+000	8	...........	1489.74
	1255	6270	1.60067E+000	4.58900E-005	0.00000E+000	1.60008E+000	0.00000E+000	8	...........	1489.70
	1256	6275	1.60067E+000	4.56126E-005	0.00000E+000	1.60008E+000	0.00000E+000	8	...........	1489.70
	1257	6280	1.60067E+000	4.57377E-005	0.00000E+000	1.60008E+000	0.00000E+000	8	...........	1489.79
	1258	6285	1.60067E+000	4.57910E-005	0.00000E+000	1.60008E+000	0.00000E+000	8	...........	1489.74
	1259	6290	1.60067E+000	4.59007E-005	0.00000E+000	1.60008E+000	0.00000E+000	8	...........	1489.79
	1260	6295	1.60067E+000	4.59267E-005	0.00000E+000	1.60008E+000	0.00000E+000	8	...........	1489.79
	1261	6300	1.60066E+000	4.59202E-005	0.00000E+000	1.60008E+000	0.00000E+000	8	...........	1489.79
	1262	6305	1.60067E+000	4.60298E-005	0.00000E+000	1.60008E+000	0.00000E+000	8	...........	1489.74
	1263	6310	1.60067E+000	4.55704E-005	0.00000E+000	1.60008E+000	0.00000E+000	8	...........	1489.75
	1264	6315	1.60067E+000	4.53465E-005	0.00000E+000	1.60008E+000	0.00000E+000	8	...........	1489.79
	1265	6320	1.60067E+000	4.56832E-005	0.00000E+000	1.60008E+000	0.00000E+000	8	...........	1489.79
	1266	6325	1.60067E+000	4.56309E-005	0.00000E+000	1.60008E+000	0.00000E+000	8	...........	1489.79
	1267	6330	1.60067E+000	4.58795E-005	0.00000E+000	1.60008E+000	0.00000E+000	8	...........	1489.74
	1268	6335	1.60067E+000	4.57706E-005	0.00000E+000	1.60008E+000	0.00000E+000	8	...........	1489.75
	1269	6340	1.60067E+000	4.57877E-005	0.00000E+000	1.60008E+000	0.00000E+000	8	...........	1489.70
	1270	6345	1.60067E+000	4.55906E-005	0.00000E+000	1.60008E+000	0.00000E+000	8	...........	1489.79
	1271	6350	1.60067E+000	4.57761E-005	0.00000E+000	1.60008E+000	0.00000E+000	8	...........	1489.74
	1272	6355	1.60067E+000	4.57024E-005	0.00000E+000	1.60008E+000	0.00000E+000	8	...........	1489.74
	1273	6360	1.60067E+000	4.56986E-005	0.00000E+000	1.60008E+000	0.00000E+000	8	...........	1489.74
	1274	6365	1.60067E+000	4.56483E-005	0.00000E+000	1.60008E+000	0.00000E+000	8	...........	1489.79
	1275	6370	1.60067E+000	4.54478E-005	0.00000E+000	1.60008E+000	0.00000E+000	8	...........	1489.79
	1276	6375	1.60067E+000	4.58141E-005	0.00000E+000	1.60008E+000	0.00000E+000	8	...........	1489.79
	1277	6380	1.60067E+000	4.57947E-005	0.00000E+000	1.60008E+000	0.00000E+000	8	...........	1489.70
	1278	6385	1.60067E+000	4.55553E-005	0.00000E+000	1.60008E+000	0.00000E+000	8	...........	1489.79
	1279	6390	1.60067E+000	4.53658E-005	0.00000E+000	1.60008E+000	0.00000E+000	8	...........	1489.70
	1280	6395	1.60067E+000	4.55096E-005	0.00000E+000	1.60008E+000	0.00000E+000	8	...........	1489.70
	1281	6400	1.60067E+000	4.53387E-005	0.00000E+000	1.60008E+000	0.00000E+000	8	...........	1489.74
	1282	6405	1.60068E+000	4.55171E-005	0.00000E+000	1.60008E+000	0.00000E+000	8	...........	1489.79
	1283	6410	1.60068E+000	4.52127E-005	0.00000E+000	1.60008E+000	0.00000E+000	8	...........	1489.79
	1284	6415	1.60067E+000	4.53819E-005	0.00000E+000	1.60008E+000	0.00000E+000	8	...........	1489.79
	1285	6420	1.60067E+000	4.54202E-005	0.00000E+000	1.60008E+000	0.00000E+000	8	...........	1489.79
	1286	6425	1.60068E+000	4.55444E-005	0.00000E+000	1.60008E+000	0.00000E+000	8	...........	1489.79
	1287	6430	1.60067E+000	4.54610E-005	0.00000E+000	1.60008E+000	0.00000E+000	8	...........	1489.79
	1288	6435	1.60068E+000	4.52977E-005	0.00000E+000	1.60008E+000	0.00000E+000	8	...........	1489.79
	1289	6440	1.60067E+000	4.52541E-005	0.00000E+000	1.60008E+000	0.00000E+000	8	...........	1489.79
	1290	6445	1.60067E+000	4.55708E-005	0.00000E+000	1.60008E+000	0.00000E+000	8	...........	1489.79
	1291	6450	1.60067E+000	4.54553E-005	0.00000E+000	1.60008E+000	0.00000E+000	8	...........	1489.79
	1292	6455	1.60067E+000	4.57267E-005	0.00000E+000	1.60008E+000	0.00000E+000	8	...........	1489.79
	1293	6460	1.60067E+000	4.53635E-005	0.00000E+000	1.60008E+000	0.00000E+000	8	...........	1489.79
	1294	6465	1.60067E+000	4.51225E-005	0.00000E+000	1.60008E+000	0.00000E+000	8	...........	1489.79
	1295	6470	1.60068E+000	4.53353E-005	0.00000E+000	1.60008E+000	0.00000E+000	8	...........	1489.79
	1296	6475	1.60067E+000	4.52551E-005	0.00000E+000	1.60008E+000	0.00000E+000	8	...........	1489.79
	1297	6480	1.60068E+000	4.51696E-005	0.00000E+000	1.60008E+000	0.00000E+000	8	...........	1489.74
	1298	6485	1.60067E+000	4.54203E-005	0.00000E+000	1.60008E+000	0.00000E+000	8	...........	1489.79
	1299	6490	1.60067E+000	4.57632E-005	0.00000E+000	1.60008E+000	0.00000E+000	8	...........	1489.79
	1300	6495	1.60067E+000	4.51254E-005	0.00000E+000	1.60008E+000	0.00000E+000	8	...........	1489.74
	1301	6500	1.60067E+000	4.52279E-005	0.00000E+000	1.60008E+000	0.00000E+000	8	...........	1489.79
	1302	6505	1.60067E+000	4.49999E-005	0.00000E+000	1.60008E+000	0.00000E+000	8	...........	1489.79
	1303	6510	1.60068E+000	4.54746E-005	0.00000E+000	1.60008E+000	0.00000E+000	8	...........	1489.79
	1304	6515	1.60067E+000	4.53221E-005	0.00000E+000	1.60008E+000	0.00000E+000	8	...........	1489.79
	1305	6520	1.60067E+000	4.52269E-005	0.00000E+000	1.60008E+000	0.00000E+000	8	...........	1489.75
	1306	6525	1.60067E+000	4.50060E-005	0.00000E+000	1.60008E+000	0.00000E+000	8	...........	1489.79
	1307	6530	1.60067E+000	4.51630E-005	0.00000E+000	1.60008E+000	0.00000E+000	8	...........	1489.79
	1308	6535	1.60068E+000	4.49922E-005	0.00000E+000	1.60008E+000	0.00000E+000	8	...........	1489.79
	1309	6540	1.60067E+000	4.49645E-005	0.00000E+000	1.60008E+000	0.00000E+000	8	...........	1489.79
	1310	6545	1.60068E+000	4.48491E-005	0.00000E+000	1.60008E+000	0.00000E+000	8	...........	1489.74
	1311	6550	1.60067E+000	4.48810E-005	0.00000E+000	1.60008E+000	0.00000E+000	8	...........	1489.79
	1312	6555	1.60067E+000	4.52400E-005	0.00000E+000	1.60008E+000	0.00000E+000	8	...........	1489.79
	1313	6560	1.60067E+000	4.53877E-005	0.00000E+000	1.60008E+000	0.00000E+000	8	...........	1489.79
	1314	6565	1.60067E+000	4.50227E-005	0.00000E+000	1.60008E+000	0.00000E+000	8	...........	1489.79
	1315	6570	1.60068E+000	4.51844E-005	0.00000E+000	1.60008E+000	0.00000E+000	8	...........	1489.79
	1316	6575	1.60067E+000	4.53504E-005	0.00000E+000	1.60008E+000	0.00000E+000	8	...........	1489.79
	1317	6580	1.60067E+000	4.52328E-005	0.00000E+000	1.60008E+000	0.00000E+000	8	...........	1489.79
	1318	6585	1.60067E+000	4.50818E-005	0.00000E+000	1.60008E+000	0.00000E+000	8	...........	1489.79
	1319	6590	1.60067E+000	4.52298E-005	0.00000E+000	1.60008E+000	0.00000E+000	8	...........	1489.79
	1320	6595	1.60067E+000	4.50614E-005	0.00000E+000	1.60008E+000	0.00000E+000	8	...........	1489.79
	1321	6600	1.60067E+000	4.49160E-005	0.00000E+000	1.60008E+000	0.00000E+000	8	...........	1489.79
	1322	6605	1.60068E+000	4.46045E-005	0.00000E+000	1.60008E+000	0.00000E+000	8	...........	1489.79
	1323	6610	1.60067E+000	4.49511E-005	0.00000E+000	1.60008E+000	0.00000E+000	8	...........	1489.79
	1324	6615	1.60066E+000	4.48408E-005	0.00000E+000	1.60008E+000	0.00000E+000	8	...........	1489.79
	1325	6620	1.60068E+000	4.49409E-005	0.00000E+000	1.60008E+000	0.00000E+000	8	...........	1489.79
	1326	6625	1.60067E+000	4.50620E-005	0.00000E+000	1.60008E+000	0.00000E+000	8	...........	1489.79
	1327	6630	1.60068E+000	4.50062E-005	0.00000E+000	1.60008E+000	0.00000E+000	8	...........	1489.79
	1328	6635	1.60067E+000	4.46142E-005	0.00000E+000	1.60008E+000	0.00000E+000	8	...........	1489.79
	1329	6640	1.60067E+000	4.46966E-005	0.00000E+000	1.60008E+000	0.00000E+000	8	...........	1489.79
	1330	6645	1.60067E+000	4.49596E-005	0.00000E+000	1.60008E+000	0.00000E+000	8	...........	1489.79
	1331	6650	1.60068E+000	4.48706E-005	0.00000E+000	1.60008E+000	0.00000E+000	8	...........	1489.79
	1332	6655	1.60067E+000	4.48804E-005	0.00000E+000	1.60008E+000	0.00000E+000	8	...........	1489.79
	1333	6660	1.60067E+000	4.48168E-005	0.00000E+000	1.60008E+000	0.00000E+000	8	...........	1489.79
	1334	6665	1.60067E+000	4.50495E-005	0.00000E+000	1.60008E+000	0.00000E+000	8	...........	1489.70
	1335	6670	1.60068E+000	4.48111E-005	0.00000E+000	1.60008E+000	0.00000E+000	8	...........	1489.79
	1336	6675	1.60068E+000	4.50210E-005	0.00000E+000	1.60008E+000	0.00000E+000	8	...........	1489.79
	1337	6680	1.60067E+000	4.46890E-005	0.00000E+000	1.60008E+000	0.00000E+000	8	...........	1489.70
	1338	6685	1.60068E+000	4.48484E-005	0.00000E+000	1.60008E+000	0.00000E+000	8	...........	1489.75
	1339	6690	1.60068E+000	4.47312E-005	0.00000E+000	1.60008E+000	0.00000E+000	8	...........	1489.74
	1340	6695	1.60068E+000	4.47158E-005	0.00000E+000	1.60008E+000	0.00000E+000	8	...........	1489.79
	1341	6700	1.60067E+000	4.49709E-005	0.00000E+000	1.60008E+000	0.00000E+000	8	...........	1489.79
	1342	6705	1.60067E+000	4.45575E-005	0.00000E+000	1.60008E+000	0.00000E+000	8	...........	1489.75
	1343	6710	1.60067E+000	4.48656E-005	0.00000E+000	1.60008E+000	0.00000E+000	8	...........	1489.74
	1344	6715	1.60068E+000	4.46881E-005	0.00000E+000	1.60008E+000	0.00000E+000	8	...........	1489.79
	1345	6720	1.60067E+000	4.45061E-005	0.00000E+000	1.60008E+000	0.00000E+000	8	...........	1489.70
	1346	6725	1.60067E+000	4.44923E-005	0.00000E+000	1.60008E+000	0.00000E+000	8	...........	1489.74
	1347	6730	1.60067E+000	4.46188E-005	0.00000E+000	1.60008E+000	0.00000E+000	8	...........	1489.79
	1348	6735	1.60066E+000	4.48172E-005	0.00000E+000	1.60008E+000	0.00000E+000	8	...........	1489.79
	1349	6740	1.60067E+000	4.44335E-005	0.00000E+000	1.60008E+000	0.00000E+000	8	...........	1489.79
	1350	6745	1.60067E+000	4.45108E-005	0.00000E+000	1.60008E+000	0.00000E+000	8	...........	1489.79
	1351	6750	1.60067E+000	4.50822E-005	0.00000E+000	1.60008E+000	0.00000E+000	8	...........	1489.79
	1352	6755	1.60067E+000	4.46753E-005	0.00000E+000	1.60008E+000	0.00000E+000	8	...........	1489.79
	1353	6760	1.60067E+000	4.45448E-005	0.00000E+000	1.60008E+000	0.00000E+000	8	...........	1489.75
	1354	6765	1.60067E+000	4.43583E-005	0.00000E+000	1.60008E+000	0.00000E+000	8	...........	1489.79
	1355	6770	1.60067E+000	4.44771E-005	0.00000E+000	1.60008E+000	0.00000E+000	8	...........	1489.75
	1356	6775	1.60068E+000	4.45747E-005	0.00000E+000	1.60008E+000	0.00000E+000	8	...........	1489.79
	1357	6780	1.60067E+000	4.46382E-005	0.00000E+000	1.60008E+000	0.00000E+000	8	...........	1489.75
	1358	6785	1.60067E+000	4.46939E-005	0.00000E+000	1.60008E+000	0.00000E+000	8	...........	1489.75
	1359	6790	1.60067E+000	4.43534E-005	0.00000E+000	1.60008E+000	0.00000E+000	8	...........	1489.74
	1360	6795	1.60067E+000	4.45854E-005	0.00000E+000	1.60008E+000	0.00000E+000	8	...........	1489.79
	1361	6800	1.60067E+000	4.46448E-005	0.00000E+000	1.60008E+000	0.00000E+000	8	...........	1489.79
	1362	6805	1.60068E+000	4.45119E-005	0.00000E+000	1.60008E+000	0.00000E+000	8	...........	1489.79
	1363	6810	1.60068E+000	4.45721E-005	0.00000E+000	1.60008E+000	0.00000E+000	8	...........	1489.79
	1364	6815	1.60068E+000	4.43905E-005	0.00000E+000	1.60008E+000	0.00000E+000	8	...........	1489.70
	1365	6820	1.60067E+000	4.40242E-005	0.00000E+000	1.60008E+000	0.00000E+000	8	...........	1489.79
	1366	6825	1.60067E+000	4.43509E-005	0.00000E+000	1.60008E+000	0.00000E+000	8	...........	1489.79
	1367	6830	1.60067E+000	4.44783E-005	0.00000E+000	1.60008E+000	0.00000E+000	8	...........	1489.74
	1368	6835	1.60067E+000	4.44529E-005	0.00000E+000	1.60008E+000	0.00000E+000	8	...........	1489.79
	1369	6840	1.60067E+000	4.41848E-005	0.00000E+000	1.60008E+000	0.00000E+000	8	...........	1489.74
	1370	6845	1.60067E+000	4.44134E-005	0.00000E+000	1.60008E+000	0.00000E+000	8	...........	1489.79
	1371	6850	1.60067E+000	4.46265E-005	0.00000E+000	1.60008E+000	0.00000E+000	8	...........	1489.79
	1372	6855	1.60067E+000	4.47097E-005	0.00000E+000	1.60008E+000	0.00000E+000	8	...........	1489.79
	1373	6860	1.60067E+000	4.43853E-005	0.00000E+000	1.60008E+000	0.00000E+000	8	...........	1489.79
	1374	6865	1.60067E+000	4.44037E-005	0.00000E+000	1.60008E+000	0.00000E+000	8	...........	1489.75
	1375	6870	1.60068E+000	4.44971E-005	0.00000E+000	1.60008E+000	0.00000E+000	8	...........	1489.74
	1376	6875	1.60067E+000	4.42028E-005	0.00000E+000	1.60008E+000	0.00000E+000	8	...........	1489.70
	1377	6880	1.60067E+000	4.46707E-005	0.00000E+000	1.60008E+000	0.00000E+000	8	...........	1489.79
	1378	6885	1.60068E+000	4.44200E-005	0.00000E+000	1.60008E+000	0.00000E+000	8	...........	1489.79
	1379	6890	1.60068E+000	4.43589E-005	0.00000E+000	1.60008E+000	0.00000E+000	8	...........	1489.70
	1380	6895	1.60068E+000	4.41365E-005	0.00000E+000	1.60008E+000	0.00000E+000	8	...........	1489.74
	1381	6900	1.60067E+000	4.41229E-005	0.00000E+000	1.60008E+000	0.00000E+000	8	...........	1489.74
	1382	6905	1.60067E+000	4.41608E-005	0.00000E+000	1.60008E+000	0.00000E+000	8	...........	1489.79
	1383	6910	1.60068E+000	4.42005E-005	0.00000E+000	1.60008E+000	0.00000E+000	8	...........	1489.79
	1384	6915	1.60067E+000	4.42191E-005	0.00000E+000	1.60008E+000	0.00000E+000	8	...........	1489.79
	1385	6920	1.60067E+000	4.40876E-005	0.00000E+000	1.60008E+000	0.00000E+000	8	...........	1489.79
	1386	6925	1.60067E+000	4.39687E-005	0.00000E+000	1.60008E+000	0.00000E+000	8	...........	1489.79
	1387	6930	1.60067E+000	4.42531E-005	0.00000E+000	1.60008E+000	0.00000E+000	8	...........	1489.79
	1388	6935	1.60067E+000	4.40805E-005	0.00000E+000	1.60008E+000	0.00000E+000	8	...........	1489.79
	1389	6940	1.60067E+000	4.40496E-005	0.00000E+000	1.60008E+000	0.00000E+000	8	...........	1489.79
	1390	6945	1.60068E+000	4.39678E-005	0.00000E+000	1.60008E+000	0.00000E+000	8	...........	1489.79
	1391	6950	1.60067E+000	4.42188E-005	0.00000E+000	1.60008E+000	0.00000E+000	8	...........	1489.79
	1392	6955	1.60067E+000	4.40533E-005	0.00000E+000	1.60008E+000	0.00000E+000	8	...........	1489.79
	1393	6960	1.60066E+000	4.39149E-005	0.00000E+000	1.60008E+000	0.00000E+000	8	...........	1489.79
	1394	6965	1.60067E+000	4.39015E-005	0.00000E+000	1.60008E+000	0.00000E+000	8	...........	1489.79
	1395	6970	1.60068E+000	4.39237E-005	0.00000E+000	1.60008E+000	0.00000E+000	8	...........	1489.79
	1396	6975	1.60067E+000	4.38830E-005	0.00000E+000	1.60008E+000	0.00000E+000	8	...........	1489.79
	1397	6980	1.60068E+000	4.38848E-005	0.00000E+000	1.60008E+000	0.00000E+000	8	...........	1489.79
	1398	6985	1.60067E+000	4.38724E-005	0.00000E+000	1.60008E+000	0.00000E+000	8	...........	1489.79
	1399	6990	1.60067E+000	4.35519E-005	0.00000E+000	1.60008E+000	0.00000E+000	8	...........	1489.79
	1400	6995	1.60066E+000	4.38037E-005	0.00000E+000	1.60008E+000	0.00000E+000	8	...........	1489.79
	1401	7000	1.60068E+000	4.39121E-005	0.00000E+000	1.60008E+000	0.00000E+000	8	...........	1489.79
	1402	7005	1.60067E+000	4.40095E-005	0.00000E+000	1.60008E+000	0.00000E+000	8	...........	1489.79
	1403	7010	1.60067E+000	4.37621E-005	0.00000E+000	1.60008E+000	0.00000E+000	8	...........	1489.79
	1404	7015	1.60068E+000	4.38389E-005	0.00000E+000	1.60008E+000	0.00000E+000	8	...........	1489.79
	1405	7020	1.60068E+000	4.39318E-005	0.00000E+000	1.60008E+000	0.00000E+000	8	...........	1489.79
	1406	7025	1.60068E+000	4.39370E-005	0.00000E+000	1.60008E+000	0.00000E+000	8	...........	1489.79
	1407	7030	1.60068E+000	4.35872E-005	0.00000E+000	1.60008E+000	0.00000E+000	8	...........	1489.79
	1408	7035	1.60066E+000	4.36599E-005	0.00000E+000	1.60008E+000	0.00000E+000	8	...........	1489.74
	1409	7040	1.60067E+000	4.37143E-005	0.00000E+000	1.60008E+000	0.00000E+000	8	...........	1489.79
	1410	7045	1.60067E+000	4.34803E-005	0.00000E+000	1.60008E+000	0.00000E+000	8	...........	1489.79
	1411	7050	1.60067E+000	4.36595E-005	0.00000E+000	1.60008E+000	0.00000E+000	8	...........	1489.75
	1412	7055	1.60067E+000	4.37053E-005	0.00000E+000	1.60008E+000	0.00000E+000	8	...........	1489.79
	1413	7060	1.60067E+000	4.40130E-005	0.00000E+000	1.60008E+000	0.00000E+000	8	...........	1489.79
	1414	7065	1.60067E+000	4.35141E-005	0.00000E+000	1.60008E+000	0.00000E+000	8	...........	1489.79
	1415	7070	1.60067E+000	4.32269E-005	0.00000E+000	1.60008E+000	0.00000E+000	8	...........	1489.79
	1416	7075	1.60067E+000	4.35021E-005	0.00000E+000	1.60008E+000	0.00000E+000	8	...........	1489.79
	1417	7080	1.60068E+000	4.37480E-005	0.00000E+000	1.60008E+000	0.00000E+000	8	...........	1489.79
	1418	7085	1.60067E+000	4.37360E-005	0.00000E+000	1.60008E+000	0.00000E+000	8	...........	1489.79
	1419	7090	1.60067E+000	4.33899E-005	0.00000E+000	1.60008E+000	0.00000E+000	8	...........	1489.79
	1420	7095	1.60067E+000	4.35781E-005	0.00000E+000	1.60008E+000	0.00000E+000	8	...........	1489.79
	1421	7100	1.60067E+000	4.35344E-005	0.00000E+000	1.60008E+000	0.00000E+000	8	...........	1489.74
	1422	7105	1.60067E+000	4.35539E-005	0.00000E+000	1.60008E+000	0.00000E+000	8	...........	1489.79
	1423	7110	1.60067E+000	4.38131E-005	0.00000E+000	1.60008E+000	0.00000E+000	8	...........	1489.79
	1424	7115	1.60067E+000	4.37624E-005	0.00000E+000	1.60008E+000	0.00000E+000	8	...........	1489.79
	1425	7120	1.60067E+000	4.35902E-005	0.00000E+000	1.60008E+000	0.00000E+000	8	...........	1489.79
	1426	7125	1.60067E+000	4.35418E-005	0.00000E+000	1.60008E+000	0.00000E+000	8	...........	1489.75
	1427	7130	1.60067E+000	4.34952E-005	0.00000E+000	1.60008E+000	0.00000E+000	8	...........	1489.79
	1428	7135	1.60067E+000	4.34859E-005	0.00000E+000	1.60008E+000	0.00000E+000	8	...........	1489.75
	1429	7140	1.60067E+000	4.32807E-005	0.00000E+000	1.60008E+000	0.00000E+000	8	...........	1489.74
	1430	7145	1.60066E+000	4.32541E-005	0.00000E+000	1.60008E+000	0.00000E+000	8	...........	1489.79
	1431	7150	1.60067E+000	4.35657E-005	0.00000E+000	1.60008E+000	0.00000E+000	8	...........	1489.79
	1432	7155	1.60067E+000	4.35446E-005	0.00000E+000	1.60008E+000	0.00000E+000	8	...........	1489.79
	1433	7160	1.60067E+000	4.37423E-005	0.00000E+000	1.60008E+000	0.00000E+000	8	...........	1489.75
	1434	7165	1.60067E+000	4.34453E-005	0.00000E+000	1.60008E+000	0.00000E+000	8	...........	1489.70
	1435	7170	1.60067E+000	4.33065E-005	0.00000E+000	1.60008E+000	0.00000E+000	8	...........	1489.79
	1436	7175	1.60067E+000	4.36009E-005	0.00000E+000	1.60008E+000	0.00000E+000	8	...........	1489.74
	1437	7180	1.60067E+000	4.32738E-005	0.00000E+000	1.60008E+000	0.00000E+000	8	...........	1489.79
	1438	7185	1.60067E+000	4.31639E-005	0.00000E+000	1.60008E+000	0.00000E+000	8	...........	1489.74
	1439	7190	1.60067E+000	4.33908E-005	0.00000E+000	1.60008E+000	0.00000E+000	8	...........	1489.79
	1440	7195	1.60068E+000	4.33114E-005	0.00000E+000	1.60008E+000	0.00000E+000	8	...........	1489.79
	1441	7200	1.60067E+000	4.33462E-005	0.00000E+000	1.60008E+000	0.00000E+000	8	...........	1489.79
	1442	7205	1.60066E+000	4.30718E-005	0.00000E+000	1.60008E+000	0.00000E+000	8	...........	1489.79
	1443	7210	1.60067E+000	4.33193E-005	0.00000E+000	1.60008E+000	0.00000E+000	8	...........	1489.79
	1444	7215	1.60067E+000	4.31454E-005	0.00000E+000	1.60008E+000	0.00000E+000	8	...........	1489.79
	1445	7220	1.60067E+000	4.32622E-005	0.00000E+000	1.60008E+000	0.00000E+000	8	...........	1489.79
	1446	7225	1.60067E+000	4.31325E-005	0.00000E+000	1.60008E+000	0.00000E+000	8	...........	1489.79
	1447	7230	1.60067E+000	4.30356E-005	0.00000E+000	1.60008E+000	0.00000E+000	8	...........	1489.79
