EXPLAIN
TAG	CORPOT
TITLE	LABEL	OCP	Test Identifier
DATE	LABEL	2/12/2024	Date
TIME	LABEL	13:33:42	Time
NOTES	NOTES	1	Notes...
	
PSTAT	PSTAT	IFC1010-36068	Potentiostat
TIMEOUT	QUANT	1.20000E+003	Total Time (s)
SAMPLETIME	QUANT	5.00000E-001	Sample Period (s)
STABILITY	QUANT	0.00000E+000	Stability (mV/s)
AREA	QUANT	1.00000E+000	Sample Area (cm^2)
SEQUENCER	TOGGLE	TRUE	Run as Sequence
PSTATMODEL	IQUANT	64	Pstat Model
PSTATSECTION	LABEL	IFC1010-36068	Pstat Section
PSTATSERIALNO	LABEL	36068	Pstat Serial Number
CTRLMODE	IQUANT	1	Control Mode
ELECTROMETER	IQUANT	0	RE=0 or CS=1
IESTAB	IQUANT	2	I/E Stability
CASPEED	IQUANT	4	Control Amp Speed
CONVENTION	IQUANT	1	Current Convention
ICHRANGE	IQUANT	2	Ich Range
ICHRANGEMODE	TOGGLE	T	Ich Auto Range
ICHOFFSETENABLE	TOGGLE	F	Ich Offset Enable
ICHOFFSET	QUANT	0	Ich Offset (V)
ICHFILTER	IQUANT	4	Ich Filter
VCHRANGE	IQUANT	3	Vch Range
VCHRANGEMODE	TOGGLE	T	Vch Auto Range
VCHOFFSETENABLE	TOGGLE	F	Vch Offset Enable
VCHOFFSET	QUANT	0	Vch Offset (V)
VCHFILTER	IQUANT	4	Vch Filter
IERANGELOWERLIMIT	IQUANT	4	I/E Range Lower Limit
IERANGEMODE	TOGGLE	F	I/E AutoRange
IERANGE	IQUANT	11	I/E Range
ACHSELECT	IQUANT	0	Ach Select
ACHRANGE	IQUANT	2	Ach Range
ACHOFFSETENABLE	TOGGLE	F	Ach Offset Enable
ACHOFFSET	QUANT	0	Ach Offset (V)
ACHFILTER	IQUANT	1	Ach Filter
SENSECABLEID	IQUANT	13	Sense Cable ID
PWRCABLEID	IQUANT	13	Power Cable ID
DCCALDATE	LABEL	8/11/2023	DC Calibration Date
ACCALDATE	LABEL	6/2/2023	AC Calibration Date
FRAMEWORKVERSION	LABEL	7.10.3	Framework Version
INSTRUMENTVERSION	LABEL	4.91	Instrument Version
COMMVERSION	LABEL	3.10	Communications Version
CPUPLDVERSION	LABEL	2.22	CPU PLD Version
CTRLPLDVERSION	LABEL	0.00	CTRL PLD Version
PSTATPLDVERSION	LABEL	0.00	PSTAT PLD Version
CURVE	TABLE	2353
	Pt	T	Vf	Vm	Ach	Over	Temp
	#	s	V vs. Ref.	V	V	bits	deg C
	0	0.51	3.88684E-001	3.88684E-001	0.00000E+000	...........	1469.06
	1	1.02	3.88687E-001	3.88828E-001	0.00000E+000	...........	1469.15
	2	1.53	3.88704E-001	3.88971E-001	0.00000E+000	...........	1469.15
	3	2.04	3.88752E-001	3.89093E-001	0.00000E+000	...........	1469.24
	4	2.55	3.88838E-001	3.89219E-001	0.00000E+000	...........	1469.24
	5	3.06	3.88952E-001	3.89324E-001	0.00000E+000	...........	1469.24
	6	3.57	3.89075E-001	3.89430E-001	0.00000E+000	...........	1469.24
	7	4.08	3.89197E-001	3.89557E-001	0.00000E+000	...........	1469.24
	8	4.59	3.89314E-001	3.89647E-001	0.00000E+000	...........	1469.24
	9	5.1	3.89428E-001	3.89811E-001	0.00000E+000	...........	1469.24
	10	5.61	3.89543E-001	3.89918E-001	0.00000E+000	...........	1469.24
	11	6.12	3.89662E-001	3.90040E-001	0.00000E+000	...........	1469.24
	12	6.63	3.89785E-001	3.90175E-001	0.00000E+000	...........	1469.24
	13	7.14	3.89909E-001	3.90260E-001	0.00000E+000	...........	1469.24
	14	7.65	3.90027E-001	3.90151E-001	0.00000E+000	...........	1469.24
	15	8.16	3.90122E-001	3.90323E-001	0.00000E+000	...........	1469.15
	16	8.67	3.90191E-001	3.90458E-001	0.00000E+000	...........	1469.15
	17	9.18	3.90255E-001	3.90630E-001	0.00000E+000	...........	1469.15
	18	9.69	3.90344E-001	3.90794E-001	0.00000E+000	...........	1469.15
	19	10.2	3.90466E-001	3.90900E-001	0.00000E+000	...........	1469.24
	20	10.71	3.90608E-001	3.91011E-001	0.00000E+000	...........	1469.24
	21	11.22	3.90751E-001	3.91151E-001	0.00000E+000	...........	1469.24
	22	11.73	3.90885E-001	3.91263E-001	0.00000E+000	...........	1469.24
	23	12.24	3.91012E-001	3.91365E-001	0.00000E+000	...........	1469.15
	24	12.75	3.91135E-001	3.91603E-001	0.00000E+000	...........	1469.15
	25	13.26	3.91263E-001	3.91713E-001	0.00000E+000	...........	1469.15
	26	13.77	3.91402E-001	3.91794E-001	0.00000E+000	...........	1469.15
	27	14.28	3.91543E-001	3.91861E-001	0.00000E+000	...........	1469.24
	28	14.79	3.91670E-001	3.91953E-001	0.00000E+000	...........	1469.24
	29	15.3	3.91775E-001	3.92042E-001	0.00000E+000	...........	1469.24
	30	15.81	3.91866E-001	3.92144E-001	0.00000E+000	...........	1469.24
	31	16.32	3.91952E-001	3.92224E-001	0.00000E+000	...........	1469.24
	32	16.83	3.92040E-001	3.92314E-001	0.00000E+000	...........	1469.14
	33	17.34	3.92129E-001	3.92386E-001	0.00000E+000	...........	1468.79
	34	17.85	3.92217E-001	3.92493E-001	0.00000E+000	...........	1468.93
	35	18.36	3.92304E-001	3.92579E-001	0.00000E+000	...........	1469.15
	36	18.87	3.92392E-001	3.92682E-001	0.00000E+000	...........	1469.15
	37	19.38	3.92483E-001	3.92773E-001	0.00000E+000	...........	1469.15
	38	19.89	3.92576E-001	3.92879E-001	0.00000E+000	...........	1469.15
	39	20.4	3.92672E-001	3.92937E-001	0.00000E+000	...........	1469.15
	40	20.91	3.92765E-001	3.93028E-001	0.00000E+000	...........	1469.15
	41	21.42	3.92855E-001	3.93132E-001	0.00000E+000	...........	1469.15
	42	21.93	3.92941E-001	3.93199E-001	0.00000E+000	...........	1469.15
	43	22.44	3.93027E-001	3.93278E-001	0.00000E+000	...........	1469.15
	44	22.95	3.93112E-001	3.93390E-001	0.00000E+000	...........	1469.15
	45	23.46	3.93198E-001	3.93485E-001	0.00000E+000	...........	1469.15
	46	23.97	3.93286E-001	3.93549E-001	0.00000E+000	...........	1469.15
	47	24.48	3.93376E-001	3.93636E-001	0.00000E+000	...........	1469.15
	48	24.99	3.93464E-001	3.93713E-001	0.00000E+000	...........	1469.15
	49	25.5	3.93547E-001	3.93785E-001	0.00000E+000	...........	1469.15
	50	26.01	3.93628E-001	3.93875E-001	0.00000E+000	...........	1469.24
	51	26.52	3.93706E-001	3.93950E-001	0.00000E+000	...........	1469.24
	52	27.03	3.93785E-001	3.94032E-001	0.00000E+000	...........	1469.15
	53	27.54	3.93865E-001	3.94100E-001	0.00000E+000	...........	1469.15
	54	28.05	3.93944E-001	3.94183E-001	0.00000E+000	...........	1469.15
	55	28.56	3.94022E-001	3.94260E-001	0.00000E+000	...........	1469.15
	56	29.07	3.94099E-001	3.94342E-001	0.00000E+000	...........	1469.15
	57	29.58	3.94177E-001	3.94420E-001	0.00000E+000	...........	1469.15
	58	30.09	3.94255E-001	3.94489E-001	0.00000E+000	...........	1469.15
	59	30.6	3.94333E-001	3.94566E-001	0.00000E+000	...........	1469.15
	60	31.11	3.94410E-001	3.94650E-001	0.00000E+000	...........	1469.15
	61	31.62	3.94486E-001	3.94713E-001	0.00000E+000	...........	1469.15
	62	32.13	3.94562E-001	3.94777E-001	0.00000E+000	...........	1469.15
	63	32.64	3.94635E-001	3.94847E-001	0.00000E+000	...........	1469.15
	64	33.15	3.94706E-001	3.94909E-001	0.00000E+000	...........	1469.15
	65	33.66	3.94774E-001	3.94971E-001	0.00000E+000	...........	1469.15
	66	34.17	3.94840E-001	3.95048E-001	0.00000E+000	...........	1469.15
	67	34.68	3.94905E-001	3.95103E-001	0.00000E+000	...........	1469.15
	68	35.19	3.94970E-001	3.95162E-001	0.00000E+000	...........	1469.15
	69	35.7	3.95035E-001	3.95239E-001	0.00000E+000	...........	1469.15
	70	36.21	3.95100E-001	3.95298E-001	0.00000E+000	...........	1469.15
	71	36.72	3.95164E-001	3.95354E-001	0.00000E+000	...........	1469.15
	72	37.23	3.95228E-001	3.95412E-001	0.00000E+000	...........	1469.15
	73	37.74	3.95290E-001	3.95474E-001	0.00000E+000	...........	1469.15
	74	38.25	3.95350E-001	3.95538E-001	0.00000E+000	...........	1469.15
	75	38.76	3.95410E-001	3.95599E-001	0.00000E+000	...........	1469.15
	76	39.27	3.95471E-001	3.95663E-001	0.00000E+000	...........	1469.15
	77	39.78	3.95533E-001	3.95731E-001	0.00000E+000	...........	1469.15
	78	40.29	3.95595E-001	3.95784E-001	0.00000E+000	...........	1469.15
	79	40.8	3.95659E-001	3.95854E-001	0.00000E+000	...........	1469.15
	80	41.31	3.95722E-001	3.95912E-001	0.00000E+000	...........	1469.15
	81	41.82	3.95784E-001	3.95981E-001	0.00000E+000	...........	1469.10
	82	42.33	3.95847E-001	3.96045E-001	0.00000E+000	...........	1468.70
	83	42.84	3.95911E-001	3.96097E-001	0.00000E+000	...........	1468.78
	84	43.35	3.95974E-001	3.96162E-001	0.00000E+000	...........	1468.97
	85	43.86	3.96035E-001	3.96198E-001	0.00000E+000	...........	1469.01
	86	44.37	3.96093E-001	3.96243E-001	0.00000E+000	...........	1469.06
	87	44.88	3.96147E-001	3.96312E-001	0.00000E+000	...........	1469.06
	88	45.39	3.96199E-001	3.96381E-001	0.00000E+000	...........	1469.06
	89	45.9	3.96252E-001	3.96453E-001	0.00000E+000	...........	1469.06
	90	46.41	3.96310E-001	3.96425E-001	0.00000E+000	...........	1469.06
	91	46.92	3.96366E-001	3.96503E-001	0.00000E+000	...........	1469.06
	92	47.43	3.96415E-001	3.96620E-001	0.00000E+000	...........	1469.06
	93	47.94	3.96464E-001	3.96675E-001	0.00000E+000	...........	1469.06
	94	48.45	3.96524E-001	3.96739E-001	0.00000E+000	...........	1469.06
	95	48.96	3.96593E-001	3.96802E-001	0.00000E+000	...........	1469.06
	96	49.47	3.96664E-001	3.96850E-001	0.00000E+000	...........	1469.06
	97	49.98	3.96730E-001	3.96914E-001	0.00000E+000	...........	1469.06
	98	50.49	3.96792E-001	3.96957E-001	0.00000E+000	...........	1469.06
	99	51	3.96849E-001	3.96994E-001	0.00000E+000	...........	1469.06
	100	51.51	3.96901E-001	3.97035E-001	0.00000E+000	...........	1469.06
	101	52.02	3.96949E-001	3.97098E-001	0.00000E+000	...........	1469.15
	102	52.53	3.96995E-001	3.97146E-001	0.00000E+000	...........	1469.15
	103	53.04	3.97042E-001	3.97216E-001	0.00000E+000	...........	1469.06
	104	53.55	3.97092E-001	3.97220E-001	0.00000E+000	...........	1469.06
	105	54.06	3.97143E-001	3.97271E-001	0.00000E+000	...........	1469.15
	106	54.57	3.97190E-001	3.97386E-001	0.00000E+000	...........	1469.15
	107	55.08	3.97239E-001	3.97451E-001	0.00000E+000	...........	1469.06
	108	55.59	3.97297E-001	3.97507E-001	0.00000E+000	...........	1469.06
	109	56.1	3.97365E-001	3.97566E-001	0.00000E+000	...........	1469.06
	110	56.61	3.97434E-001	3.97592E-001	0.00000E+000	...........	1469.06
	111	57.12	3.97495E-001	3.97590E-001	0.00000E+000	...........	1469.06
	112	57.63	3.97543E-001	3.97629E-001	0.00000E+000	...........	1469.06
	113	58.14	3.97577E-001	3.97665E-001	0.00000E+000	...........	1469.06
	114	58.65	3.97605E-001	3.97710E-001	0.00000E+000	...........	1469.06
	115	59.16	3.97633E-001	3.97753E-001	0.00000E+000	...........	1469.06
	116	59.67	3.97668E-001	3.97788E-001	0.00000E+000	...........	1469.06
	117	60.18	3.97706E-001	3.97848E-001	0.00000E+000	...........	1469.06
	118	60.69	3.97748E-001	3.97893E-001	0.00000E+000	...........	1469.06
	119	61.2	3.97794E-001	3.97978E-001	0.00000E+000	...........	1469.06
	120	61.71	3.97845E-001	3.98057E-001	0.00000E+000	...........	1469.06
	121	62.22	3.97905E-001	3.98108E-001	0.00000E+000	...........	1469.06
	122	62.73	3.97971E-001	3.98155E-001	0.00000E+000	...........	1469.06
	123	63.24	3.98035E-001	3.98144E-001	0.00000E+000	...........	1469.06
	124	63.75	3.98090E-001	3.98238E-001	0.00000E+000	...........	1469.06
	125	64.26	3.98136E-001	3.98308E-001	0.00000E+000	...........	1469.06
	126	64.77	3.98182E-001	3.98364E-001	0.00000E+000	...........	1469.06
	127	65.28	3.98235E-001	3.98407E-001	0.00000E+000	...........	1469.15
	128	65.79	3.98293E-001	3.98439E-001	0.00000E+000	...........	1469.15
	129	66.3	3.98348E-001	3.98491E-001	0.00000E+000	...........	1469.06
	130	66.81	3.98398E-001	3.98547E-001	0.00000E+000	...........	1469.06
	131	67.32	3.98444E-001	3.98577E-001	0.00000E+000	...........	1469.06
	132	67.83	3.98489E-001	3.98612E-001	0.00000E+000	...........	1468.98
	133	68.34	3.98533E-001	3.98659E-001	0.00000E+000	...........	1468.70
	134	68.85	3.98575E-001	3.98716E-001	0.00000E+000	...........	1468.84
	135	69.36	3.98617E-001	3.98765E-001	0.00000E+000	...........	1469.06
	136	69.87	3.98661E-001	3.98800E-001	0.00000E+000	...........	1469.00
	137	70.38	3.98709E-001	3.98859E-001	0.00000E+000	...........	1468.97
	138	70.89	3.98756E-001	3.98903E-001	0.00000E+000	...........	1469.04
	139	71.4	3.98804E-001	3.98958E-001	0.00000E+000	...........	1469.06
	140	71.91	3.98853E-001	3.98993E-001	0.00000E+000	...........	1469.06
	141	72.42	3.98901E-001	3.99046E-001	0.00000E+000	...........	1469.06
	142	72.93	3.98948E-001	3.99086E-001	0.00000E+000	...........	1468.97
	143	73.44	3.98994E-001	3.99127E-001	0.00000E+000	...........	1468.97
	144	73.95	3.99039E-001	3.99185E-001	0.00000E+000	...........	1469.06
	145	74.46	3.99083E-001	3.99211E-001	0.00000E+000	...........	1469.06
	146	74.97	3.99128E-001	3.99256E-001	0.00000E+000	...........	1469.06
	147	75.48	3.99171E-001	3.99295E-001	0.00000E+000	...........	1469.06
	148	75.99	3.99212E-001	3.99324E-001	0.00000E+000	...........	1469.06
	149	76.5	3.99251E-001	3.99368E-001	0.00000E+000	...........	1469.06
	150	77.01	3.99289E-001	3.99416E-001	0.00000E+000	...........	1469.06
	151	77.52	3.99327E-001	3.99442E-001	0.00000E+000	...........	1469.06
	152	78.03	3.99366E-001	3.99478E-001	0.00000E+000	...........	1469.06
	153	78.54	3.99405E-001	3.99522E-001	0.00000E+000	...........	1469.06
	154	79.05	3.99442E-001	3.99568E-001	0.00000E+000	...........	1469.06
	155	79.56	3.99480E-001	3.99609E-001	0.00000E+000	...........	1469.06
	156	80.07	3.99521E-001	3.99668E-001	0.00000E+000	...........	1469.06
	157	80.58	3.99564E-001	3.99690E-001	0.00000E+000	...........	1469.06
	158	81.09	3.99609E-001	3.99739E-001	0.00000E+000	...........	1469.06
	159	81.6	3.99652E-001	3.99812E-001	0.00000E+000	...........	1469.06
	160	82.11	3.99697E-001	3.99823E-001	0.00000E+000	...........	1469.06
	161	82.62	3.99743E-001	3.99895E-001	0.00000E+000	...........	1469.06
	162	83.13	3.99789E-001	3.99924E-001	0.00000E+000	...........	1469.06
	163	83.64	3.99835E-001	3.99962E-001	0.00000E+000	...........	1469.06
	164	84.15	3.99879E-001	4.00004E-001	0.00000E+000	...........	1469.15
	165	84.66	3.99921E-001	4.00025E-001	0.00000E+000	...........	1469.15
	166	85.17	3.99959E-001	4.00060E-001	0.00000E+000	...........	1469.06
	167	85.68	3.99994E-001	4.00087E-001	0.00000E+000	...........	1469.06
	168	86.19	4.00026E-001	4.00118E-001	0.00000E+000	...........	1469.06
	169	86.7	4.00056E-001	4.00151E-001	0.00000E+000	...........	1469.06
	170	87.21	4.00086E-001	4.00186E-001	0.00000E+000	...........	1469.06
	171	87.72	4.00118E-001	4.00247E-001	0.00000E+000	...........	1469.06
	172	88.23	4.00152E-001	4.00263E-001	0.00000E+000	...........	1469.06
	173	88.74	4.00190E-001	4.00296E-001	0.00000E+000	...........	1469.06
	174	89.25	4.00227E-001	4.00322E-001	0.00000E+000	...........	1469.15
	175	89.76	4.00261E-001	4.00357E-001	0.00000E+000	...........	1469.15
	176	90.27	4.00293E-001	4.00386E-001	0.00000E+000	...........	1469.06
	177	90.78	4.00324E-001	4.00432E-001	0.00000E+000	...........	1469.06
	178	91.29	4.00355E-001	4.00463E-001	0.00000E+000	...........	1469.06
	179	91.8	4.00390E-001	4.00504E-001	0.00000E+000	...........	1469.06
	180	92.31	4.00425E-001	4.00526E-001	0.00000E+000	...........	1469.06
	181	92.82	4.00461E-001	4.00561E-001	0.00000E+000	...........	1469.06
	182	93.33	4.00495E-001	4.00603E-001	0.00000E+000	...........	1469.06
	183	93.84	4.00528E-001	4.00634E-001	0.00000E+000	...........	1469.03
	184	94.35	4.00562E-001	4.00675E-001	0.00000E+000	...........	1468.97
	185	94.86	4.00597E-001	4.00698E-001	0.00000E+000	...........	1468.97
	186	95.37	4.00633E-001	4.00749E-001	0.00000E+000	...........	1468.97
	187	95.88	4.00668E-001	4.00792E-001	0.00000E+000	...........	1468.97
	188	96.39	4.00705E-001	4.00810E-001	0.00000E+000	...........	1468.97
	189	96.9	4.00742E-001	4.00834E-001	0.00000E+000	...........	1468.97
	190	97.41	4.00777E-001	4.00873E-001	0.00000E+000	...........	1468.97
	191	97.92	4.00808E-001	4.00905E-001	0.00000E+000	...........	1468.97
	192	98.43	4.00838E-001	4.00917E-001	0.00000E+000	...........	1468.97
	193	98.94	4.00868E-001	4.00958E-001	0.00000E+000	...........	1469.06
	194	99.45	4.00896E-001	4.00996E-001	0.00000E+000	...........	1469.06
	195	99.96	4.00926E-001	4.01040E-001	0.00000E+000	...........	1469.06
	196	100.47	4.00959E-001	4.01071E-001	0.00000E+000	...........	1469.06
	197	100.98	4.00995E-001	4.01109E-001	0.00000E+000	...........	1469.06
	198	101.49	4.01031E-001	4.01116E-001	0.00000E+000	...........	1469.06
	199	102	4.01066E-001	4.01160E-001	0.00000E+000	...........	1469.06
	200	102.51	4.01097E-001	4.01189E-001	0.00000E+000	...........	1469.06
	201	103.02	4.01126E-001	4.01222E-001	0.00000E+000	...........	1469.06
	202	103.53	4.01156E-001	4.01261E-001	0.00000E+000	...........	1469.06
	203	104.04	4.01188E-001	4.01304E-001	0.00000E+000	...........	1469.06
	204	104.55	4.01223E-001	4.01357E-001	0.00000E+000	...........	1469.06
	205	105.06	4.01262E-001	4.01405E-001	0.00000E+000	...........	1469.06
	206	105.57	4.01305E-001	4.01421E-001	0.00000E+000	...........	1469.06
	207	106.08	4.01348E-001	4.01452E-001	0.00000E+000	...........	1469.06
	208	106.59	4.01387E-001	4.01476E-001	0.00000E+000	...........	1469.06
	209	107.1	4.01420E-001	4.01503E-001	0.00000E+000	...........	1469.06
	210	107.61	4.01449E-001	4.01534E-001	0.00000E+000	...........	1469.06
	211	108.12	4.01476E-001	4.01549E-001	0.00000E+000	...........	1469.06
	212	108.63	4.01502E-001	4.01590E-001	0.00000E+000	...........	1469.06
	213	109.14	4.01528E-001	4.01601E-001	0.00000E+000	...........	1469.06
	214	109.65	4.01554E-001	4.01637E-001	0.00000E+000	...........	1469.06
	215	110.16	4.01580E-001	4.01670E-001	0.00000E+000	...........	1469.06
	216	110.67	4.01607E-001	4.01696E-001	0.00000E+000	...........	1469.06
	217	111.18	4.01635E-001	4.01710E-001	0.00000E+000	...........	1469.06
	218	111.69	4.01663E-001	4.01743E-001	0.00000E+000	...........	1469.06
	219	112.2	4.01689E-001	4.01775E-001	0.00000E+000	...........	1468.97
	220	112.71	4.01716E-001	4.01802E-001	0.00000E+000	...........	1468.97
	221	113.22	4.01743E-001	4.01836E-001	0.00000E+000	...........	1469.06
	222	113.73	4.01772E-001	4.01867E-001	0.00000E+000	...........	1469.06
	223	114.24	4.01802E-001	4.01875E-001	0.00000E+000	...........	1469.06
	224	114.75	4.01831E-001	4.01918E-001	0.00000E+000	...........	1469.06
	225	115.26	4.01858E-001	4.01952E-001	0.00000E+000	...........	1469.06
	226	115.77	4.01886E-001	4.01983E-001	0.00000E+000	...........	1469.06
	227	116.28	4.01916E-001	4.02010E-001	0.00000E+000	...........	1469.06
	228	116.79	4.01947E-001	4.02032E-001	0.00000E+000	...........	1469.06
	229	117.3	4.01978E-001	4.02079E-001	0.00000E+000	...........	1469.06
	230	117.81	4.02008E-001	4.02101E-001	0.00000E+000	...........	1469.06
	231	118.32	4.02038E-001	4.02144E-001	0.00000E+000	...........	1468.97
	232	118.83	4.02070E-001	4.02166E-001	0.00000E+000	...........	1468.99
	233	119.34	4.02103E-001	4.02195E-001	0.00000E+000	...........	1469.06
	234	119.85	4.02134E-001	4.02219E-001	0.00000E+000	...........	1469.06
	235	120.36	4.02164E-001	4.02247E-001	0.00000E+000	...........	1469.06
	236	120.87	4.02192E-001	4.02268E-001	0.00000E+000	...........	1469.00
	237	121.38	4.02218E-001	4.02304E-001	0.00000E+000	...........	1468.97
	238	121.89	4.02244E-001	4.02332E-001	0.00000E+000	...........	1468.97
	239	122.4	4.02272E-001	4.02359E-001	0.00000E+000	...........	1468.97
	240	122.91	4.02300E-001	4.02393E-001	0.00000E+000	...........	1468.97
	241	123.42	4.02329E-001	4.02402E-001	0.00000E+000	...........	1468.97
	242	123.93	4.02357E-001	4.02419E-001	0.00000E+000	...........	1468.97
	243	124.44	4.02381E-001	4.02444E-001	0.00000E+000	...........	1468.97
	244	124.95	4.02402E-001	4.02478E-001	0.00000E+000	...........	1469.06
	245	125.46	4.02424E-001	4.02506E-001	0.00000E+000	...........	1469.06
	246	125.97	4.02447E-001	4.02526E-001	0.00000E+000	...........	1468.97
	247	126.48	4.02473E-001	4.02549E-001	0.00000E+000	...........	1468.97
	248	126.99	4.02499E-001	4.02573E-001	0.00000E+000	...........	1469.06
	249	127.5	4.02524E-001	4.02596E-001	0.00000E+000	...........	1469.06
	250	128.01	4.02548E-001	4.02630E-001	0.00000E+000	...........	1468.97
	251	128.52	4.02572E-001	4.02649E-001	0.00000E+000	...........	1468.97
	252	129.03	4.02598E-001	4.02676E-001	0.00000E+000	...........	1469.06
	253	129.54	4.02623E-001	4.02698E-001	0.00000E+000	...........	1469.06
	254	130.05	4.02648E-001	4.02717E-001	0.00000E+000	...........	1469.06
	255	130.56	4.02673E-001	4.02748E-001	0.00000E+000	...........	1469.06
	256	131.07	4.02696E-001	4.02779E-001	0.00000E+000	...........	1469.06
	257	131.58	4.02721E-001	4.02808E-001	0.00000E+000	...........	1469.06
	258	132.09	4.02747E-001	4.02821E-001	0.00000E+000	...........	1469.06
	259	132.6	4.02774E-001	4.02853E-001	0.00000E+000	...........	1469.06
	260	133.11	4.02801E-001	4.02929E-001	0.00000E+000	...........	1469.06
	261	133.62	4.02830E-001	4.02870E-001	0.00000E+000	...........	1469.06
	262	134.13	4.02858E-001	4.02926E-001	0.00000E+000	...........	1469.06
	263	134.64	4.02883E-001	4.02967E-001	0.00000E+000	...........	1469.06
	264	135.15	4.02904E-001	4.02993E-001	0.00000E+000	...........	1469.06
	265	135.66	4.02930E-001	4.03037E-001	0.00000E+000	...........	1469.06
	266	136.17	4.02960E-001	4.03048E-001	0.00000E+000	...........	1469.06
	267	136.68	4.02991E-001	4.03051E-001	0.00000E+000	...........	1469.06
	268	137.19	4.03019E-001	4.03065E-001	0.00000E+000	...........	1469.06
	269	137.7	4.03040E-001	4.03095E-001	0.00000E+000	...........	1469.06
	270	138.21	4.03056E-001	4.03126E-001	0.00000E+000	...........	1469.06
	271	138.72	4.03074E-001	4.03136E-001	0.00000E+000	...........	1469.06
	272	139.23	4.03095E-001	4.03188E-001	0.00000E+000	...........	1469.06
	273	139.74	4.03119E-001	4.03206E-001	0.00000E+000	...........	1469.06
	274	140.25	4.03146E-001	4.03195E-001	0.00000E+000	...........	1469.06
	275	140.76	4.03171E-001	4.03243E-001	0.00000E+000	...........	1469.06
	276	141.27	4.03193E-001	4.03228E-001	0.00000E+000	...........	1469.06
	277	141.78	4.03210E-001	4.03272E-001	0.00000E+000	...........	1469.06
	278	142.29	4.03227E-001	4.03294E-001	0.00000E+000	...........	1469.06
	279	142.8	4.03245E-001	4.03317E-001	0.00000E+000	...........	1469.06
	280	143.31	4.03267E-001	4.03357E-001	0.00000E+000	...........	1469.06
	281	143.82	4.03292E-001	4.03368E-001	0.00000E+000	...........	1469.04
	282	144.33	4.03319E-001	4.03405E-001	0.00000E+000	...........	1468.88
	283	144.84	4.03346E-001	4.03424E-001	0.00000E+000	...........	1468.88
	284	145.35	4.03372E-001	4.03445E-001	0.00000E+000	...........	1468.88
	285	145.86	4.03397E-001	4.03460E-001	0.00000E+000	...........	1468.92
	286	146.37	4.03420E-001	4.03480E-001	0.00000E+000	...........	1468.97
	287	146.88	4.03441E-001	4.03502E-001	0.00000E+000	...........	1468.97
	288	147.39	4.03461E-001	4.03529E-001	0.00000E+000	...........	1468.97
	289	147.9	4.03481E-001	4.03546E-001	0.00000E+000	...........	1468.97
	290	148.41	4.03502E-001	4.03562E-001	0.00000E+000	...........	1468.97
	291	148.92	4.03524E-001	4.03602E-001	0.00000E+000	...........	1469.06
	292	149.43	4.03546E-001	4.03624E-001	0.00000E+000	...........	1469.06
	293	149.94	4.03569E-001	4.03629E-001	0.00000E+000	...........	1468.97
	294	150.45	4.03594E-001	4.03708E-001	0.00000E+000	...........	1468.97
	295	150.96	4.03621E-001	4.03724E-001	0.00000E+000	...........	1469.06
	296	151.47	4.03652E-001	4.03757E-001	0.00000E+000	...........	1469.06
	297	151.98	4.03689E-001	4.03930E-001	0.00000E+000	...........	1468.97
	298	152.49	4.03737E-001	4.03922E-001	0.00000E+000	...........	1468.97
	299	153	4.03796E-001	4.03897E-001	0.00000E+000	...........	1469.06
	300	153.51	4.03853E-001	4.03917E-001	0.00000E+000	...........	1469.06
	301	154.02	4.03891E-001	4.03918E-001	0.00000E+000	...........	1468.97
	302	154.53	4.03909E-001	4.03929E-001	0.00000E+000	...........	1468.97
	303	155.04	4.03917E-001	4.03931E-001	0.00000E+000	...........	1469.06
	304	155.55	4.03922E-001	4.03948E-001	0.00000E+000	...........	1469.06
	305	156.06	4.03928E-001	4.03955E-001	0.00000E+000	...........	1469.06
	306	156.57	4.03936E-001	4.03985E-001	0.00000E+000	...........	1469.06
	307	157.08	4.03947E-001	4.04007E-001	0.00000E+000	...........	1469.06
	308	157.59	4.03963E-001	4.04015E-001	0.00000E+000	...........	1469.06
	309	158.1	4.03981E-001	4.04048E-001	0.00000E+000	...........	1468.97
	310	158.61	4.04000E-001	4.04014E-001	0.00000E+000	...........	1468.97
	311	159.12	4.04016E-001	4.04055E-001	0.00000E+000	...........	1469.06
	312	159.63	4.04028E-001	4.04095E-001	0.00000E+000	...........	1469.06
	313	160.14	4.04041E-001	4.04120E-001	0.00000E+000	...........	1468.97
	314	160.65	4.04061E-001	4.04138E-001	0.00000E+000	...........	1468.97
	315	161.16	4.04086E-001	4.04161E-001	0.00000E+000	...........	1469.06
	316	161.67	4.04112E-001	4.04186E-001	0.00000E+000	...........	1469.06
	317	162.18	4.04137E-001	4.04209E-001	0.00000E+000	...........	1469.06
	318	162.69	4.04160E-001	4.04213E-001	0.00000E+000	...........	1469.06
	319	163.2	4.04181E-001	4.04231E-001	0.00000E+000	...........	1469.06
	320	163.71	4.04200E-001	4.04247E-001	0.00000E+000	...........	1469.06
	321	164.22	4.04216E-001	4.04267E-001	0.00000E+000	...........	1469.06
	322	164.73	4.04231E-001	4.04289E-001	0.00000E+000	...........	1469.06
	323	165.24	4.04249E-001	4.04323E-001	0.00000E+000	...........	1468.97
	324	165.75	4.04269E-001	4.04345E-001	0.00000E+000	...........	1468.97
	325	166.26	4.04292E-001	4.04376E-001	0.00000E+000	...........	1469.06
	326	166.77	4.04318E-001	4.04393E-001	0.00000E+000	...........	1469.06
	327	167.28	4.04343E-001	4.04385E-001	0.00000E+000	...........	1468.97
	328	167.79	4.04365E-001	4.04412E-001	0.00000E+000	...........	1468.97
	329	168.3	4.04382E-001	4.04435E-001	0.00000E+000	...........	1468.88
	330	168.81	4.04397E-001	4.04440E-001	0.00000E+000	...........	1468.88
	331	169.32	4.04412E-001	4.04466E-001	0.00000E+000	...........	1468.79
	332	169.83	4.04428E-001	4.04489E-001	0.00000E+000	...........	1468.79
	333	170.34	4.04446E-001	4.04511E-001	0.00000E+000	...........	1468.79
	334	170.85	4.04466E-001	4.04545E-001	0.00000E+000	...........	1468.90
	335	171.36	4.04488E-001	4.04550E-001	0.00000E+000	...........	1469.06
	336	171.87	4.04511E-001	4.04569E-001	0.00000E+000	...........	1469.00
	337	172.38	4.04532E-001	4.04591E-001	0.00000E+000	...........	1468.97
	338	172.89	4.04552E-001	4.04603E-001	0.00000E+000	...........	1468.97
	339	173.4	4.04569E-001	4.04620E-001	0.00000E+000	...........	1468.97
	340	173.91	4.04586E-001	4.04642E-001	0.00000E+000	...........	1468.97
	341	174.42	4.04603E-001	4.04651E-001	0.00000E+000	...........	1468.97
	342	174.93	4.04620E-001	4.04678E-001	0.00000E+000	...........	1468.97
	343	175.44	4.04637E-001	4.04695E-001	0.00000E+000	...........	1468.97
	344	175.95	4.04655E-001	4.04709E-001	0.00000E+000	...........	1469.06
	345	176.46	4.04674E-001	4.04740E-001	0.00000E+000	...........	1469.06
	346	176.97	4.04693E-001	4.04758E-001	0.00000E+000	...........	1469.06
	347	177.48	4.04713E-001	4.04778E-001	0.00000E+000	...........	1469.06
	348	177.99	4.04734E-001	4.04784E-001	0.00000E+000	...........	1469.06
	349	178.5	4.04754E-001	4.04802E-001	0.00000E+000	...........	1469.06
	350	179.01	4.04772E-001	4.04823E-001	0.00000E+000	...........	1468.97
	351	179.52	4.04788E-001	4.04851E-001	0.00000E+000	...........	1468.97
	352	180.03	4.04805E-001	4.04869E-001	0.00000E+000	...........	1468.97
	353	180.54	4.04824E-001	4.04891E-001	0.00000E+000	...........	1468.97
	354	181.05	4.04846E-001	4.04926E-001	0.00000E+000	...........	1469.06
	355	181.56	4.04869E-001	4.04950E-001	0.00000E+000	...........	1469.06
	356	182.07	4.04894E-001	4.04973E-001	0.00000E+000	...........	1468.97
	357	182.58	4.04920E-001	4.04992E-001	0.00000E+000	...........	1468.97
	358	183.09	4.04945E-001	4.05002E-001	0.00000E+000	...........	1468.97
	359	183.6	4.04968E-001	4.05018E-001	0.00000E+000	...........	1468.97
	360	184.11	4.04986E-001	4.05040E-001	0.00000E+000	...........	1468.97
	361	184.62	4.05003E-001	4.05056E-001	0.00000E+000	...........	1468.97
	362	185.13	4.05020E-001	4.05069E-001	0.00000E+000	...........	1468.97
	363	185.64	4.05037E-001	4.05087E-001	0.00000E+000	...........	1468.97
	364	186.15	4.05053E-001	4.05095E-001	0.00000E+000	...........	1468.97
	365	186.66	4.05069E-001	4.05134E-001	0.00000E+000	...........	1468.97
	366	187.17	4.05085E-001	4.05150E-001	0.00000E+000	...........	1468.97
	367	187.68	4.05104E-001	4.05164E-001	0.00000E+000	...........	1468.97
	368	188.19	4.05125E-001	4.05186E-001	0.00000E+000	...........	1468.97
	369	188.7	4.05145E-001	4.05198E-001	0.00000E+000	...........	1468.97
	370	189.21	4.05164E-001	4.05219E-001	0.00000E+000	...........	1468.97
	371	189.72	4.05182E-001	4.05246E-001	0.00000E+000	...........	1468.97
	372	190.23	4.05200E-001	4.05235E-001	0.00000E+000	...........	1468.97
	373	190.74	4.05217E-001	4.05257E-001	0.00000E+000	...........	1468.97
	374	191.25	4.05231E-001	4.05279E-001	0.00000E+000	...........	1468.97
	375	191.76	4.05245E-001	4.05292E-001	0.00000E+000	...........	1468.97
	376	192.27	4.05259E-001	4.05311E-001	0.00000E+000	...........	1468.97
	377	192.78	4.05274E-001	4.05294E-001	0.00000E+000	...........	1468.97
	378	193.29	4.05288E-001	4.05324E-001	0.00000E+000	...........	1469.06
	379	193.8	4.05299E-001	4.05338E-001	0.00000E+000	...........	1469.06
	380	194.31	4.05310E-001	4.05366E-001	0.00000E+000	...........	1468.79
	381	194.82	4.05324E-001	4.05390E-001	0.00000E+000	...........	1468.78
	382	195.33	4.05342E-001	4.05399E-001	0.00000E+000	...........	1468.70
	383	195.84	4.05362E-001	4.05424E-001	0.00000E+000	...........	1468.78
	384	196.35	4.05382E-001	4.05430E-001	0.00000E+000	...........	1468.97
	385	196.86	4.05401E-001	4.05452E-001	0.00000E+000	...........	1468.97
	386	197.37	4.05418E-001	4.05477E-001	0.00000E+000	...........	1468.97
	387	197.88	4.05435E-001	4.05486E-001	0.00000E+000	...........	1468.97
	388	198.39	4.05452E-001	4.05497E-001	0.00000E+000	...........	1468.97
	389	198.9	4.05469E-001	4.05515E-001	0.00000E+000	...........	1468.97
	390	199.41	4.05485E-001	4.05539E-001	0.00000E+000	...........	1468.97
	391	199.92	4.05500E-001	4.05560E-001	0.00000E+000	...........	1468.97
	392	200.43	4.05517E-001	4.05573E-001	0.00000E+000	...........	1468.97
	393	200.94	4.05536E-001	4.05593E-001	0.00000E+000	...........	1468.97
	394	201.45	4.05555E-001	4.05602E-001	0.00000E+000	...........	1468.97
	395	201.96	4.05572E-001	4.05625E-001	0.00000E+000	...........	1469.06
	396	202.47	4.05589E-001	4.05630E-001	0.00000E+000	...........	1469.06
	397	202.98	4.05604E-001	4.05649E-001	0.00000E+000	...........	1468.97
	398	203.49	4.05619E-001	4.05661E-001	0.00000E+000	...........	1468.97
	399	204	4.05633E-001	4.05678E-001	0.00000E+000	...........	1468.97
	400	204.51	4.05647E-001	4.05696E-001	0.00000E+000	...........	1468.97
	401	205.02	4.05662E-001	4.05706E-001	0.00000E+000	...........	1468.97
	402	205.53	4.05677E-001	4.05719E-001	0.00000E+000	...........	1468.97
	403	206.04	4.05692E-001	4.05747E-001	0.00000E+000	...........	1468.97
	404	206.55	4.05707E-001	4.05747E-001	0.00000E+000	...........	1468.97
	405	207.06	4.05722E-001	4.05762E-001	0.00000E+000	...........	1468.97
	406	207.57	4.05736E-001	4.05778E-001	0.00000E+000	...........	1468.97
	407	208.08	4.05749E-001	4.05791E-001	0.00000E+000	...........	1468.97
	408	208.59	4.05762E-001	4.05793E-001	0.00000E+000	...........	1468.97
	409	209.1	4.05775E-001	4.05808E-001	0.00000E+000	...........	1468.97
	410	209.61	4.05786E-001	4.05820E-001	0.00000E+000	...........	1468.97
	411	210.12	4.05797E-001	4.05854E-001	0.00000E+000	...........	1468.97
	412	210.63	4.05810E-001	4.05861E-001	0.00000E+000	...........	1468.97
	413	211.14	4.05826E-001	4.05874E-001	0.00000E+000	...........	1468.97
	414	211.65	4.05843E-001	4.05891E-001	0.00000E+000	...........	1468.97
	415	212.16	4.05860E-001	4.05915E-001	0.00000E+000	...........	1468.97
	416	212.67	4.05876E-001	4.05931E-001	0.00000E+000	...........	1468.97
	417	213.18	4.05893E-001	4.05934E-001	0.00000E+000	...........	1468.97
	418	213.69	4.05909E-001	4.05951E-001	0.00000E+000	...........	1468.97
	419	214.2	4.05924E-001	4.05953E-001	0.00000E+000	...........	1468.97
	420	214.71	4.05937E-001	4.05982E-001	0.00000E+000	...........	1468.97
	421	215.22	4.05948E-001	4.05984E-001	0.00000E+000	...........	1468.97
	422	215.73	4.05960E-001	4.05998E-001	0.00000E+000	...........	1468.97
	423	216.24	4.05973E-001	4.06011E-001	0.00000E+000	...........	1468.97
	424	216.75	4.05985E-001	4.06022E-001	0.00000E+000	...........	1468.97
	425	217.26	4.05997E-001	4.06028E-001	0.00000E+000	...........	1468.97
	426	217.77	4.06009E-001	4.06043E-001	0.00000E+000	...........	1468.97
	427	218.28	4.06019E-001	4.06031E-001	0.00000E+000	...........	1468.97
	428	218.79	4.06027E-001	4.06018E-001	0.00000E+000	...........	1468.97
	429	219.3	4.06031E-001	4.06017E-001	0.00000E+000	...........	1468.97
	430	219.81	4.06030E-001	4.06045E-001	0.00000E+000	...........	1468.96
	431	220.32	4.06028E-001	4.06053E-001	0.00000E+000	...........	1468.61
	432	220.83	4.06031E-001	4.06047E-001	0.00000E+000	...........	1468.61
	433	221.34	4.06037E-001	4.06048E-001	0.00000E+000	...........	1468.61
	434	221.85	4.06044E-001	4.06061E-001	0.00000E+000	...........	1468.75
	435	222.36	4.06049E-001	4.06080E-001	0.00000E+000	...........	1468.97
	436	222.87	4.06055E-001	4.06079E-001	0.00000E+000	...........	1468.97
	437	223.38	4.06063E-001	4.06077E-001	0.00000E+000	...........	1468.97
	438	223.89	4.06071E-001	4.06077E-001	0.00000E+000	...........	1468.90
	439	224.4	4.06075E-001	4.06078E-001	0.00000E+000	...........	1468.88
	440	224.91	4.06078E-001	4.06091E-001	0.00000E+000	...........	1468.97
	441	225.42	4.06080E-001	4.06090E-001	0.00000E+000	...........	1468.97
	442	225.93	4.06082E-001	4.06089E-001	0.00000E+000	...........	1468.88
	443	226.44	4.06086E-001	4.06097E-001	0.00000E+000	...........	1468.88
	444	226.95	4.06089E-001	4.06105E-001	0.00000E+000	...........	1468.97
	445	227.46	4.06093E-001	4.06115E-001	0.00000E+000	...........	1468.97
	446	227.97	4.06098E-001	4.06123E-001	0.00000E+000	...........	1468.97
	447	228.48	4.06105E-001	4.06136E-001	0.00000E+000	...........	1468.97
	448	228.99	4.06114E-001	4.06135E-001	0.00000E+000	...........	1468.97
	449	229.5	4.06122E-001	4.06125E-001	0.00000E+000	...........	1468.97
	450	230.01	4.06129E-001	4.06157E-001	0.00000E+000	...........	1468.97
	451	230.52	4.06134E-001	4.06175E-001	0.00000E+000	...........	1468.97
	452	231.03	4.06142E-001	4.06176E-001	0.00000E+000	...........	1469.06
	453	231.54	4.06153E-001	4.06194E-001	0.00000E+000	...........	1469.06
	454	232.05	4.06166E-001	4.06198E-001	0.00000E+000	...........	1468.97
	455	232.56	4.06178E-001	4.06203E-001	0.00000E+000	...........	1468.97
	456	233.07	4.06188E-001	4.06213E-001	0.00000E+000	...........	1468.97
	457	233.58	4.06197E-001	4.06216E-001	0.00000E+000	...........	1468.97
	458	234.09	4.06204E-001	4.06228E-001	0.00000E+000	...........	1468.97
	459	234.6	4.06211E-001	4.06240E-001	0.00000E+000	...........	1468.97
	460	235.11	4.06219E-001	4.06259E-001	0.00000E+000	...........	1468.97
	461	235.62	4.06229E-001	4.06260E-001	0.00000E+000	...........	1468.97
	462	236.13	4.06240E-001	4.06269E-001	0.00000E+000	...........	1468.97
	463	236.64	4.06252E-001	4.06291E-001	0.00000E+000	...........	1468.97
	464	237.15	4.06263E-001	4.06313E-001	0.00000E+000	...........	1468.97
	465	237.66	4.06275E-001	4.06305E-001	0.00000E+000	...........	1468.97
	466	238.17	4.06288E-001	4.06333E-001	0.00000E+000	...........	1468.97
	467	238.68	4.06302E-001	4.06337E-001	0.00000E+000	...........	1468.97
	468	239.19	4.06313E-001	4.06312E-001	0.00000E+000	...........	1468.97
	469	239.7	4.06322E-001	4.06333E-001	0.00000E+000	...........	1468.97
	470	240.21	4.06327E-001	4.06380E-001	0.00000E+000	...........	1468.97
	471	240.72	4.06333E-001	4.06398E-001	0.00000E+000	...........	1468.97
	472	241.23	4.06347E-001	4.06402E-001	0.00000E+000	...........	1468.97
	473	241.74	4.06366E-001	4.06359E-001	0.00000E+000	...........	1468.97
	474	242.25	4.06380E-001	4.06409E-001	0.00000E+000	...........	1469.06
	475	242.76	4.06389E-001	4.06472E-001	0.00000E+000	...........	1469.06
	476	243.27	4.06399E-001	4.06448E-001	0.00000E+000	...........	1468.97
	477	243.78	4.06416E-001	4.06456E-001	0.00000E+000	...........	1468.97
	478	244.29	4.06435E-001	4.06446E-001	0.00000E+000	...........	1468.97
	479	244.8	4.06447E-001	4.06459E-001	0.00000E+000	...........	1468.97
	480	245.31	4.06453E-001	4.06485E-001	0.00000E+000	...........	1468.52
	481	245.82	4.06458E-001	4.06504E-001	0.00000E+000	...........	1468.52
	482	246.33	4.06467E-001	4.06508E-001	0.00000E+000	...........	1468.52
	483	246.84	4.06481E-001	4.06522E-001	0.00000E+000	...........	1468.63
	484	247.35	4.06496E-001	4.06544E-001	0.00000E+000	...........	1468.88
	485	247.86	4.06510E-001	4.06551E-001	0.00000E+000	...........	1468.92
	486	248.37	4.06524E-001	4.06571E-001	0.00000E+000	...........	1468.97
	487	248.88	4.06539E-001	4.06581E-001	0.00000E+000	...........	1468.91
	488	249.39	4.06553E-001	4.06606E-001	0.00000E+000	...........	1468.88
	489	249.9	4.06568E-001	4.06608E-001	0.00000E+000	...........	1468.88
	490	250.41	4.06583E-001	4.06619E-001	0.00000E+000	...........	1468.88
	491	250.92	4.06597E-001	4.06633E-001	0.00000E+000	...........	1468.97
	492	251.43	4.06609E-001	4.06653E-001	0.00000E+000	...........	1468.97
	493	251.94	4.06621E-001	4.06660E-001	0.00000E+000	...........	1468.97
	494	252.45	4.06634E-001	4.06661E-001	0.00000E+000	...........	1468.97
	495	252.96	4.06646E-001	4.06688E-001	0.00000E+000	...........	1468.97
	496	253.47	4.06658E-001	4.06703E-001	0.00000E+000	...........	1468.97
	497	253.98	4.06670E-001	4.06722E-001	0.00000E+000	...........	1468.97
	498	254.49	4.06685E-001	4.06731E-001	0.00000E+000	...........	1468.97
	499	255	4.06701E-001	4.06751E-001	0.00000E+000	...........	1468.97
	500	255.51	4.06717E-001	4.06759E-001	0.00000E+000	...........	1468.97
	501	256.02	4.06732E-001	4.06779E-001	0.00000E+000	...........	1468.97
	502	256.53	4.06747E-001	4.06793E-001	0.00000E+000	...........	1468.97
	503	257.04	4.06762E-001	4.06796E-001	0.00000E+000	...........	1468.97
	504	257.55	4.06776E-001	4.06811E-001	0.00000E+000	...........	1468.97
	505	258.06	4.06788E-001	4.06834E-001	0.00000E+000	...........	1468.97
	506	258.57	4.06800E-001	4.06834E-001	0.00000E+000	...........	1468.97
	507	259.08	4.06813E-001	4.06861E-001	0.00000E+000	...........	1468.97
	508	259.59	4.06827E-001	4.06875E-001	0.00000E+000	...........	1468.97
	509	260.1	4.06841E-001	4.06889E-001	0.00000E+000	...........	1468.97
	510	260.61	4.06857E-001	4.06894E-001	0.00000E+000	...........	1468.97
	511	261.12	4.06872E-001	4.06918E-001	0.00000E+000	...........	1468.97
	512	261.63	4.06885E-001	4.06926E-001	0.00000E+000	...........	1468.97
	513	262.14	4.06899E-001	4.06934E-001	0.00000E+000	...........	1468.97
	514	262.65	4.06912E-001	4.06951E-001	0.00000E+000	...........	1468.97
	515	263.16	4.06925E-001	4.06963E-001	0.00000E+000	...........	1468.97
	516	263.67	4.06937E-001	4.06967E-001	0.00000E+000	...........	1468.97
	517	264.18	4.06948E-001	4.06954E-001	0.00000E+000	...........	1468.97
	518	264.69	4.06956E-001	4.06964E-001	0.00000E+000	...........	1468.97
	519	265.2	4.06960E-001	4.06971E-001	0.00000E+000	...........	1468.88
	520	265.71	4.06963E-001	4.06988E-001	0.00000E+000	...........	1468.88
	521	266.22	4.06967E-001	4.07000E-001	0.00000E+000	...........	1468.97
	522	266.73	4.06975E-001	4.07021E-001	0.00000E+000	...........	1468.97
	523	267.24	4.06987E-001	4.07035E-001	0.00000E+000	...........	1468.97
	524	267.75	4.07001E-001	4.07040E-001	0.00000E+000	...........	1468.97
	525	268.26	4.07016E-001	4.07049E-001	0.00000E+000	...........	1468.97
	526	268.77	4.07029E-001	4.07053E-001	0.00000E+000	...........	1468.97
	527	269.28	4.07039E-001	4.07075E-001	0.00000E+000	...........	1468.97
	528	269.79	4.07049E-001	4.07084E-001	0.00000E+000	...........	1468.97
	529	270.3	4.07059E-001	4.07088E-001	0.00000E+000	...........	1468.97
	530	270.81	4.07070E-001	4.07106E-001	0.00000E+000	...........	1468.96
	531	271.32	4.07081E-001	4.07123E-001	0.00000E+000	...........	1468.52
	532	271.83	4.07093E-001	4.07124E-001	0.00000E+000	...........	1468.53
	533	272.34	4.07104E-001	4.07129E-001	0.00000E+000	...........	1468.61
	534	272.85	4.07115E-001	4.07129E-001	0.00000E+000	...........	1468.75
	535	273.36	4.07121E-001	4.07051E-001	0.00000E+000	...........	1468.97
	536	273.87	4.07118E-001	4.07106E-001	0.00000E+000	...........	1468.91
	537	274.38	4.07110E-001	4.07178E-001	0.00000E+000	...........	1468.88
	538	274.89	4.07105E-001	4.07015E-001	0.00000E+000	...........	1468.88
	539	275.4	4.07105E-001	4.07136E-001	0.00000E+000	...........	1468.88
	540	275.91	4.07105E-001	4.07181E-001	0.00000E+000	...........	1468.88
	541	276.42	4.07110E-001	4.07208E-001	0.00000E+000	...........	1468.88
	542	276.93	4.07133E-001	4.07318E-001	0.00000E+000	...........	1468.88
	543	277.44	4.07175E-001	4.07379E-001	0.00000E+000	...........	1468.88
	544	277.95	4.07230E-001	4.07340E-001	0.00000E+000	...........	1468.97
	545	278.46	4.07283E-001	4.07223E-001	0.00000E+000	...........	1468.97
	546	278.97	4.07312E-001	4.07266E-001	0.00000E+000	...........	1468.97
	547	279.48	4.07308E-001	4.07279E-001	0.00000E+000	...........	1468.97
	548	279.99	4.07290E-001	4.07291E-001	0.00000E+000	...........	1468.97
	549	280.5	4.07278E-001	4.07297E-001	0.00000E+000	...........	1468.97
	550	281.01	4.07278E-001	4.07304E-001	0.00000E+000	...........	1468.97
	551	281.52	4.07285E-001	4.07299E-001	0.00000E+000	...........	1468.97
	552	282.03	4.07295E-001	4.07421E-001	0.00000E+000	...........	1468.97
	553	282.54	4.07312E-001	4.07393E-001	0.00000E+000	...........	1468.97
	554	283.05	4.07337E-001	4.07362E-001	0.00000E+000	...........	1468.97
	555	283.56	4.07362E-001	4.07354E-001	0.00000E+000	...........	1468.97
	556	284.07	4.07373E-001	4.07333E-001	0.00000E+000	...........	1468.97
	557	284.58	4.07369E-001	4.07337E-001	0.00000E+000	...........	1468.97
	558	285.09	4.07357E-001	4.07343E-001	0.00000E+000	...........	1468.88
	559	285.6	4.07347E-001	4.07344E-001	0.00000E+000	...........	1468.88
	560	286.11	4.07342E-001	4.07349E-001	0.00000E+000	...........	1468.97
	561	286.62	4.07341E-001	4.07346E-001	0.00000E+000	...........	1468.97
	562	287.13	4.07343E-001	4.07348E-001	0.00000E+000	...........	1468.97
	563	287.64	4.07345E-001	4.07356E-001	0.00000E+000	...........	1468.97
	564	288.15	4.07347E-001	4.07342E-001	0.00000E+000	...........	1468.97
	565	288.66	4.07349E-001	4.07351E-001	0.00000E+000	...........	1468.97
	566	289.17	4.07349E-001	4.07337E-001	0.00000E+000	...........	1468.97
	567	289.68	4.07348E-001	4.07354E-001	0.00000E+000	...........	1468.97
	568	290.19	4.07347E-001	4.07349E-001	0.00000E+000	...........	1468.97
	569	290.7	4.07347E-001	4.07349E-001	0.00000E+000	...........	1468.97
	570	291.21	4.07348E-001	4.07358E-001	0.00000E+000	...........	1468.97
	571	291.72	4.07350E-001	4.07350E-001	0.00000E+000	...........	1468.97
	572	292.23	4.07351E-001	4.07351E-001	0.00000E+000	...........	1468.97
	573	292.74	4.07352E-001	4.07337E-001	0.00000E+000	...........	1468.97
	574	293.25	4.07350E-001	4.07332E-001	0.00000E+000	...........	1468.97
	575	293.76	4.07346E-001	4.07337E-001	0.00000E+000	...........	1468.97
	576	294.27	4.07341E-001	4.07334E-001	0.00000E+000	...........	1468.97
	577	294.78	4.07338E-001	4.07336E-001	0.00000E+000	...........	1468.97
	578	295.29	4.07335E-001	4.07331E-001	0.00000E+000	...........	1468.97
	579	295.8	4.07335E-001	4.07338E-001	0.00000E+000	...........	1468.97
	580	296.31	4.07335E-001	4.07346E-001	0.00000E+000	...........	1468.97
	581	296.82	4.07336E-001	4.07352E-001	0.00000E+000	...........	1468.92
	582	297.33	4.07339E-001	4.07346E-001	0.00000E+000	...........	1468.52
	583	297.84	4.07344E-001	4.07358E-001	0.00000E+000	...........	1468.63
	584	298.35	4.07348E-001	4.07347E-001	0.00000E+000	...........	1468.88
	585	298.86	4.07350E-001	4.07356E-001	0.00000E+000	...........	1468.88
	586	299.37	4.07352E-001	4.07357E-001	0.00000E+000	...........	1468.88
	587	299.88	4.07353E-001	4.07355E-001	0.00000E+000	...........	1468.88
	588	300.39	4.07354E-001	4.07360E-001	0.00000E+000	...........	1468.88
	589	300.9	4.07355E-001	4.07357E-001	0.00000E+000	...........	1468.88
	590	301.41	4.07357E-001	4.07363E-001	0.00000E+000	...........	1468.88
	591	301.92	4.07358E-001	4.07375E-001	0.00000E+000	...........	1468.97
	592	302.43	4.07361E-001	4.07381E-001	0.00000E+000	...........	1468.97
	593	302.94	4.07366E-001	4.07383E-001	0.00000E+000	...........	1468.97
	594	303.45	4.07372E-001	4.07392E-001	0.00000E+000	...........	1468.97
	595	303.96	4.07379E-001	4.07408E-001	0.00000E+000	...........	1468.97
	596	304.47	4.07386E-001	4.07415E-001	0.00000E+000	...........	1468.97
	597	304.98	4.07394E-001	4.07426E-001	0.00000E+000	...........	1468.97
	598	305.49	4.07404E-001	4.07437E-001	0.00000E+000	...........	1468.97
	599	306	4.07415E-001	4.07454E-001	0.00000E+000	...........	1468.97
	600	306.51	4.07426E-001	4.07471E-001	0.00000E+000	...........	1468.97
	601	307.02	4.07439E-001	4.07490E-001	0.00000E+000	...........	1468.97
	602	307.53	4.07454E-001	4.07501E-001	0.00000E+000	...........	1468.97
	603	308.04	4.07470E-001	4.07517E-001	0.00000E+000	...........	1468.97
	604	308.55	4.07486E-001	4.07533E-001	0.00000E+000	...........	1468.97
	605	309.06	4.07501E-001	4.07527E-001	0.00000E+000	...........	1468.97
	606	309.57	4.07514E-001	4.07540E-001	0.00000E+000	...........	1468.97
	607	310.08	4.07524E-001	4.07551E-001	0.00000E+000	...........	1469.06
	608	310.59	4.07533E-001	4.07559E-001	0.00000E+000	...........	1469.06
	609	311.1	4.07541E-001	4.07565E-001	0.00000E+000	...........	1468.97
	610	311.61	4.07549E-001	4.07568E-001	0.00000E+000	...........	1468.97
	611	312.12	4.07557E-001	4.07577E-001	0.00000E+000	...........	1468.97
	612	312.63	4.07563E-001	4.07579E-001	0.00000E+000	...........	1468.97
	613	313.14	4.07569E-001	4.07580E-001	0.00000E+000	...........	1468.97
	614	313.65	4.07574E-001	4.07589E-001	0.00000E+000	...........	1468.97
	615	314.16	4.07579E-001	4.07596E-001	0.00000E+000	...........	1468.97
	616	314.67	4.07583E-001	4.07604E-001	0.00000E+000	...........	1468.97
	617	315.18	4.07589E-001	4.07606E-001	0.00000E+000	...........	1468.97
	618	315.69	4.07595E-001	4.07620E-001	0.00000E+000	...........	1468.97
	619	316.2	4.07602E-001	4.07635E-001	0.00000E+000	...........	1468.97
	620	316.71	4.07610E-001	4.07636E-001	0.00000E+000	...........	1468.97
	621	317.22	4.07620E-001	4.07646E-001	0.00000E+000	...........	1468.97
	622	317.73	4.07629E-001	4.07653E-001	0.00000E+000	...........	1468.97
	623	318.24	4.07638E-001	4.07665E-001	0.00000E+000	...........	1468.97
	624	318.75	4.07646E-001	4.07664E-001	0.00000E+000	...........	1468.97
	625	319.26	4.07653E-001	4.07665E-001	0.00000E+000	...........	1468.97
	626	319.77	4.07659E-001	4.07676E-001	0.00000E+000	...........	1468.97
	627	320.28	4.07665E-001	4.07698E-001	0.00000E+000	...........	1468.88
	628	320.79	4.07671E-001	4.07697E-001	0.00000E+000	...........	1468.88
	629	321.3	4.07679E-001	4.07698E-001	0.00000E+000	...........	1468.97
	630	321.81	4.07688E-001	4.07700E-001	0.00000E+000	...........	1468.96
	631	322.32	4.07694E-001	4.07713E-001	0.00000E+000	...........	1468.52
	632	322.83	4.07699E-001	4.07714E-001	0.00000E+000	...........	1468.53
	633	323.34	4.07704E-001	4.07735E-001	0.00000E+000	...........	1468.61
	634	323.85	4.07711E-001	4.07735E-001	0.00000E+000	...........	1468.72
	635	324.36	4.07719E-001	4.07741E-001	0.00000E+000	...........	1468.88
	636	324.87	4.07728E-001	4.07768E-001	0.00000E+000	...........	1468.88
	637	325.38	4.07737E-001	4.07788E-001	0.00000E+000	...........	1468.88
	638	325.89	4.07749E-001	4.07790E-001	0.00000E+000	...........	1468.88
	639	326.4	4.07764E-001	4.07784E-001	0.00000E+000	...........	1468.88
	640	326.91	4.07776E-001	4.07777E-001	0.00000E+000	...........	1468.88
	641	327.42	4.07783E-001	4.07801E-001	0.00000E+000	...........	1468.88
	642	327.93	4.07787E-001	4.07832E-001	0.00000E+000	...........	1468.97
	643	328.44	4.07793E-001	4.07839E-001	0.00000E+000	...........	1468.97
	644	328.95	4.07805E-001	4.07842E-001	0.00000E+000	...........	1468.97
	645	329.46	4.07820E-001	4.07869E-001	0.00000E+000	...........	1468.97
	646	329.97	4.07834E-001	4.07860E-001	0.00000E+000	...........	1468.97
	647	330.48	4.07847E-001	4.07861E-001	0.00000E+000	...........	1468.97
	648	330.99	4.07855E-001	4.07862E-001	0.00000E+000	...........	1468.88
	649	331.5	4.07860E-001	4.07861E-001	0.00000E+000	...........	1468.88
	650	332.01	4.07861E-001	4.07854E-001	0.00000E+000	...........	1468.97
	651	332.52	4.07861E-001	4.07866E-001	0.00000E+000	...........	1468.97
	652	333.03	4.07861E-001	4.07907E-001	0.00000E+000	...........	1468.97
	653	333.54	4.07866E-001	4.07920E-001	0.00000E+000	...........	1468.97
	654	334.05	4.07878E-001	4.07921E-001	0.00000E+000	...........	1468.97
	655	334.56	4.07894E-001	4.07915E-001	0.00000E+000	...........	1468.97
	656	335.07	4.07907E-001	4.07903E-001	0.00000E+000	...........	1468.97
	657	335.58	4.07914E-001	4.07900E-001	0.00000E+000	...........	1468.97
	658	336.09	4.07912E-001	4.07895E-001	0.00000E+000	...........	1468.97
	659	336.6	4.07907E-001	4.07879E-001	0.00000E+000	...........	1468.97
	660	337.11	4.07900E-001	4.07880E-001	0.00000E+000	...........	1468.97
	661	337.62	4.07893E-001	4.07883E-001	0.00000E+000	...........	1468.97
	662	338.13	4.07887E-001	4.07884E-001	0.00000E+000	...........	1468.97
	663	338.64	4.07883E-001	4.07884E-001	0.00000E+000	...........	1468.97
	664	339.15	4.07883E-001	4.07885E-001	0.00000E+000	...........	1468.97
	665	339.66	4.07883E-001	4.07891E-001	0.00000E+000	...........	1468.97
	666	340.17	4.07884E-001	4.07887E-001	0.00000E+000	...........	1468.97
	667	340.68	4.07886E-001	4.07894E-001	0.00000E+000	...........	1468.97
	668	341.19	4.07888E-001	4.07889E-001	0.00000E+000	...........	1468.97
	669	341.7	4.07889E-001	4.07891E-001	0.00000E+000	...........	1468.97
	670	342.21	4.07890E-001	4.07893E-001	0.00000E+000	...........	1468.97
	671	342.72	4.07891E-001	4.07900E-001	0.00000E+000	...........	1468.97
	672	343.23	4.07893E-001	4.07905E-001	0.00000E+000	...........	1468.88
	673	343.74	4.07895E-001	4.07913E-001	0.00000E+000	...........	1468.88
	674	344.25	4.07900E-001	4.07906E-001	0.00000E+000	...........	1468.88
	675	344.76	4.07904E-001	4.07921E-001	0.00000E+000	...........	1468.88
	676	345.27	4.07908E-001	4.07928E-001	0.00000E+000	...........	1468.97
	677	345.78	4.07913E-001	4.07929E-001	0.00000E+000	...........	1468.97
	678	346.29	4.07919E-001	4.07929E-001	0.00000E+000	...........	1468.97
	679	346.8	4.07924E-001	4.07938E-001	0.00000E+000	...........	1468.97
	680	347.31	4.07928E-001	4.07939E-001	0.00000E+000	...........	1468.97
	681	347.82	4.07932E-001	4.07960E-001	0.00000E+000	...........	1468.92
	682	348.33	4.07937E-001	4.07958E-001	0.00000E+000	...........	1468.52
	683	348.84	4.07944E-001	4.07965E-001	0.00000E+000	...........	1468.60
	684	349.35	4.07952E-001	4.07973E-001	0.00000E+000	...........	1468.79
	685	349.86	4.07959E-001	4.07977E-001	0.00000E+000	...........	1468.83
	686	350.37	4.07965E-001	4.07967E-001	0.00000E+000	...........	1468.88
	687	350.88	4.07969E-001	4.07963E-001	0.00000E+000	...........	1468.88
	688	351.39	4.07971E-001	4.07976E-001	0.00000E+000	...........	1468.88
	689	351.9	4.07970E-001	4.07967E-001	0.00000E+000	...........	1468.88
	690	352.41	4.07970E-001	4.07976E-001	0.00000E+000	...........	1468.88
	691	352.92	4.07970E-001	4.07970E-001	0.00000E+000	...........	1468.88
	692	353.43	4.07971E-001	4.07958E-001	0.00000E+000	...........	1468.88
	693	353.94	4.07970E-001	4.07942E-001	0.00000E+000	...........	1468.88
	694	354.45	4.07965E-001	4.07930E-001	0.00000E+000	...........	1468.88
	695	354.96	4.07957E-001	4.07955E-001	0.00000E+000	...........	1468.97
	696	355.47	4.07950E-001	4.07964E-001	0.00000E+000	...........	1468.97
	697	355.98	4.07948E-001	4.07972E-001	0.00000E+000	...........	1468.97
	698	356.49	4.07952E-001	4.07984E-001	0.00000E+000	...........	1468.97
	699	357	4.07961E-001	4.08003E-001	0.00000E+000	...........	1468.97
	700	357.51	4.07972E-001	4.08000E-001	0.00000E+000	...........	1468.97
	701	358.02	4.07984E-001	4.08028E-001	0.00000E+000	...........	1468.97
	702	358.53	4.07996E-001	4.08047E-001	0.00000E+000	...........	1468.97
	703	359.04	4.08010E-001	4.08058E-001	0.00000E+000	...........	1468.97
	704	359.55	4.08026E-001	4.08082E-001	0.00000E+000	...........	1468.97
	705	360.06	4.08042E-001	4.08083E-001	0.00000E+000	...........	1468.97
	706	360.57	4.08059E-001	4.08108E-001	0.00000E+000	...........	1468.97
	707	361.08	4.08074E-001	4.08120E-001	0.00000E+000	...........	1468.97
	708	361.59	4.08089E-001	4.08117E-001	0.00000E+000	...........	1468.97
	709	362.1	4.08102E-001	4.08133E-001	0.00000E+000	...........	1468.97
	710	362.61	4.08113E-001	4.08145E-001	0.00000E+000	...........	1468.97
	711	363.12	4.08122E-001	4.08123E-001	0.00000E+000	...........	1468.88
	712	363.63	4.08124E-001	4.07900E-001	0.00000E+000	...........	1468.88
	713	364.14	4.08106E-001	4.07993E-001	0.00000E+000	...........	1468.97
	714	364.65	4.08064E-001	4.07953E-001	0.00000E+000	...........	1468.97
	715	365.16	4.08020E-001	4.08186E-001	0.00000E+000	...........	1468.97
	716	365.67	4.08007E-001	4.08156E-001	0.00000E+000	...........	1468.97
	717	366.18	4.08037E-001	4.08156E-001	0.00000E+000	...........	1468.97
	718	366.69	4.08088E-001	4.08157E-001	0.00000E+000	...........	1468.97
	719	367.2	4.08130E-001	4.08171E-001	0.00000E+000	...........	1468.97
	720	367.71	4.08153E-001	4.08200E-001	0.00000E+000	...........	1468.97
	721	368.22	4.08167E-001	4.08226E-001	0.00000E+000	...........	1468.88
	722	368.73	4.08181E-001	4.08226E-001	0.00000E+000	...........	1468.88
	723	369.24	4.08197E-001	4.08239E-001	0.00000E+000	...........	1468.97
	724	369.75	4.08213E-001	4.08250E-001	0.00000E+000	...........	1468.97
	725	370.26	4.08227E-001	4.08264E-001	0.00000E+000	...........	1468.97
	726	370.77	4.08239E-001	4.08270E-001	0.00000E+000	...........	1468.97
	727	371.28	4.08250E-001	4.08287E-001	0.00000E+000	...........	1468.97
	728	371.79	4.08261E-001	4.08286E-001	0.00000E+000	...........	1468.97
	729	372.3	4.08271E-001	4.08285E-001	0.00000E+000	...........	1468.97
	730	372.81	4.08279E-001	4.08295E-001	0.00000E+000	...........	1468.97
	731	373.32	4.08285E-001	4.08298E-001	0.00000E+000	...........	1468.97
	732	373.83	4.08289E-001	4.08304E-001	0.00000E+000	...........	1468.89
	733	374.34	4.08294E-001	4.08317E-001	0.00000E+000	...........	1468.61
	734	374.85	4.08300E-001	4.08333E-001	0.00000E+000	...........	1468.72
	735	375.36	4.08308E-001	4.08343E-001	0.00000E+000	...........	1468.88
	736	375.87	4.08318E-001	4.08330E-001	0.00000E+000	...........	1468.88
	737	376.38	4.08327E-001	4.08329E-001	0.00000E+000	...........	1468.88
	738	376.89	4.08332E-001	4.08348E-001	0.00000E+000	...........	1468.88
	739	377.4	4.08335E-001	4.08333E-001	0.00000E+000	...........	1468.88
	740	377.91	4.08336E-001	4.08345E-001	0.00000E+000	...........	1468.88
	741	378.42	4.08338E-001	4.08372E-001	0.00000E+000	...........	1468.88
	742	378.93	4.08343E-001	4.08375E-001	0.00000E+000	...........	1468.88
	743	379.44	4.08352E-001	4.08419E-001	0.00000E+000	...........	1468.88
	744	379.95	4.08367E-001	4.08458E-001	0.00000E+000	...........	1468.97
	745	380.46	4.08388E-001	4.08440E-001	0.00000E+000	...........	1468.97
	746	380.97	4.08412E-001	4.08432E-001	0.00000E+000	...........	1468.97
	747	381.48	4.08429E-001	4.08449E-001	0.00000E+000	...........	1468.97
	748	381.99	4.08439E-001	4.08468E-001	0.00000E+000	...........	1468.97
	749	382.5	4.08445E-001	4.08456E-001	0.00000E+000	...........	1468.97
	750	383.01	4.08451E-001	4.08467E-001	0.00000E+000	...........	1468.97
	751	383.52	4.08456E-001	4.08468E-001	0.00000E+000	...........	1468.97
	752	384.03	4.08461E-001	4.08471E-001	0.00000E+000	...........	1468.97
	753	384.54	4.08465E-001	4.08478E-001	0.00000E+000	...........	1468.97
	754	385.05	4.08468E-001	4.08463E-001	0.00000E+000	...........	1468.97
	755	385.56	4.08470E-001	4.08463E-001	0.00000E+000	...........	1468.97
	756	386.07	4.08470E-001	4.08465E-001	0.00000E+000	...........	1468.97
	757	386.58	4.08468E-001	4.08470E-001	0.00000E+000	...........	1468.97
	758	387.09	4.08467E-001	4.08479E-001	0.00000E+000	...........	1468.97
	759	387.6	4.08468E-001	4.08486E-001	0.00000E+000	...........	1468.97
	760	388.11	4.08472E-001	4.08482E-001	0.00000E+000	...........	1468.97
	761	388.62	4.08477E-001	4.08480E-001	0.00000E+000	...........	1468.97
	762	389.13	4.08480E-001	4.08493E-001	0.00000E+000	...........	1468.97
	763	389.64	4.08483E-001	4.08491E-001	0.00000E+000	...........	1468.97
	764	390.15	4.08485E-001	4.08493E-001	0.00000E+000	...........	1468.97
	765	390.66	4.08488E-001	4.08501E-001	0.00000E+000	...........	1468.97
	766	391.17	4.08491E-001	4.08486E-001	0.00000E+000	...........	1468.97
	767	391.68	4.08493E-001	4.08468E-001	0.00000E+000	...........	1468.97
	768	392.19	4.08491E-001	4.08480E-001	0.00000E+000	...........	1468.97
	769	392.7	4.08486E-001	4.08490E-001	0.00000E+000	...........	1468.97
	770	393.21	4.08482E-001	4.08489E-001	0.00000E+000	...........	1468.97
	771	393.72	4.08482E-001	4.08488E-001	0.00000E+000	...........	1468.97
	772	394.23	4.08485E-001	4.08506E-001	0.00000E+000	...........	1468.97
	773	394.74	4.08489E-001	4.08512E-001	0.00000E+000	...........	1468.97
	774	395.25	4.08495E-001	4.08513E-001	0.00000E+000	...........	1468.97
	775	395.76	4.08502E-001	4.08519E-001	0.00000E+000	...........	1468.97
	776	396.27	4.08508E-001	4.08524E-001	0.00000E+000	...........	1468.97
	777	396.78	4.08514E-001	4.08531E-001	0.00000E+000	...........	1468.97
	778	397.29	4.08519E-001	4.08541E-001	0.00000E+000	...........	1468.97
	779	397.8	4.08525E-001	4.08537E-001	0.00000E+000	...........	1468.97
	780	398.31	4.08530E-001	4.08539E-001	0.00000E+000	...........	1468.97
	781	398.82	4.08535E-001	4.08543E-001	0.00000E+000	...........	1468.91
	782	399.33	4.08538E-001	4.08545E-001	0.00000E+000	...........	1468.43
	783	399.84	4.08540E-001	4.08553E-001	0.00000E+000	...........	1468.54
	784	400.35	4.08543E-001	4.08570E-001	0.00000E+000	...........	1468.79
	785	400.86	4.08548E-001	4.08557E-001	0.00000E+000	...........	1468.83
	786	401.37	4.08554E-001	4.08565E-001	0.00000E+000	...........	1468.88
	787	401.88	4.08559E-001	4.08581E-001	0.00000E+000	...........	1468.88
	788	402.39	4.08564E-001	4.08589E-001	0.00000E+000	...........	1468.88
	789	402.9	4.08570E-001	4.08589E-001	0.00000E+000	...........	1468.96
	790	403.41	4.08577E-001	4.08586E-001	0.00000E+000	...........	1468.97
	791	403.92	4.08583E-001	4.08587E-001	0.00000E+000	...........	1468.88
	792	404.43	4.08586E-001	4.08588E-001	0.00000E+000	...........	1468.88
	793	404.94	4.08588E-001	4.08602E-001	0.00000E+000	...........	1468.97
	794	405.45	4.08589E-001	4.08588E-001	0.00000E+000	...........	1468.97
	795	405.96	4.08591E-001	4.08609E-001	0.00000E+000	...........	1468.97
	796	406.47	4.08594E-001	4.08617E-001	0.00000E+000	...........	1468.97
	797	406.98	4.08599E-001	4.08614E-001	0.00000E+000	...........	1468.97
	798	407.49	4.08605E-001	4.08621E-001	0.00000E+000	...........	1468.97
	799	408	4.08611E-001	4.08626E-001	0.00000E+000	...........	1468.97
	800	408.51	4.08616E-001	4.08629E-001	0.00000E+000	...........	1468.97
	801	409.02	4.08621E-001	4.08638E-001	0.00000E+000	...........	1468.97
	802	409.53	4.08626E-001	4.08646E-001	0.00000E+000	...........	1468.97
	803	410.04	4.08631E-001	4.08644E-001	0.00000E+000	...........	1468.97
	804	410.55	4.08636E-001	4.08630E-001	0.00000E+000	...........	1468.97
	805	411.06	4.08639E-001	4.08621E-001	0.00000E+000	...........	1468.97
	806	411.57	4.08637E-001	4.08614E-001	0.00000E+000	...........	1468.97
	807	412.08	4.08631E-001	4.08611E-001	0.00000E+000	...........	1468.97
	808	412.59	4.08624E-001	4.08605E-001	0.00000E+000	...........	1468.97
	809	413.1	4.08617E-001	4.08601E-001	0.00000E+000	...........	1469.06
	810	413.61	4.08611E-001	4.08606E-001	0.00000E+000	...........	1469.06
	811	414.12	4.08607E-001	4.08597E-001	0.00000E+000	...........	1468.97
	812	414.63	4.08604E-001	4.08587E-001	0.00000E+000	...........	1468.97
	813	415.14	4.08601E-001	4.08594E-001	0.00000E+000	...........	1468.88
	814	415.65	4.08597E-001	4.08589E-001	0.00000E+000	...........	1468.88
	815	416.16	4.08594E-001	4.08598E-001	0.00000E+000	...........	1468.97
	816	416.67	4.08592E-001	4.08582E-001	0.00000E+000	...........	1468.97
	817	417.18	4.08591E-001	4.08578E-001	0.00000E+000	...........	1468.97
	818	417.69	4.08589E-001	4.08584E-001	0.00000E+000	...........	1468.97
	819	418.2	4.08587E-001	4.08600E-001	0.00000E+000	...........	1468.97
	820	418.71	4.08586E-001	4.08614E-001	0.00000E+000	...........	1468.97
	821	419.22	4.08590E-001	4.08601E-001	0.00000E+000	...........	1468.97
	822	419.73	4.08596E-001	4.08604E-001	0.00000E+000	...........	1468.97
	823	420.24	4.08602E-001	4.08620E-001	0.00000E+000	...........	1468.88
	824	420.75	4.08606E-001	4.08631E-001	0.00000E+000	...........	1468.88
	825	421.26	4.08611E-001	4.08609E-001	0.00000E+000	...........	1468.97
	826	421.77	4.08616E-001	4.08613E-001	0.00000E+000	...........	1468.97
	827	422.28	4.08617E-001	4.08602E-001	0.00000E+000	...........	1468.97
	828	422.79	4.08615E-001	4.08584E-001	0.00000E+000	...........	1468.97
	829	423.3	4.08609E-001	4.08590E-001	0.00000E+000	...........	1468.97
	830	423.81	4.08601E-001	4.08580E-001	0.00000E+000	...........	1468.97
	831	424.32	4.08594E-001	4.08595E-001	0.00000E+000	...........	1468.88
	832	424.83	4.08589E-001	4.08586E-001	0.00000E+000	...........	1468.82
	833	425.34	4.08588E-001	4.08596E-001	0.00000E+000	...........	1468.61
	834	425.85	4.08588E-001	4.08583E-001	0.00000E+000	...........	1468.72
	835	426.36	4.08589E-001	4.08596E-001	0.00000E+000	...........	1468.88
	836	426.87	4.08591E-001	4.08620E-001	0.00000E+000	...........	1468.88
	837	427.38	4.08594E-001	4.08615E-001	0.00000E+000	...........	1468.88
	838	427.89	4.08601E-001	4.08618E-001	0.00000E+000	...........	1468.95
	839	428.4	4.08608E-001	4.08627E-001	0.00000E+000	...........	1468.97
	840	428.91	4.08616E-001	4.08688E-001	0.00000E+000	...........	1468.88
	841	429.42	4.08624E-001	4.08548E-001	0.00000E+000	...........	1468.88
	842	429.93	4.08628E-001	4.08581E-001	0.00000E+000	...........	1468.88
	843	430.44	4.08621E-001	4.08630E-001	0.00000E+000	...........	1468.88
	844	430.95	4.08609E-001	4.08622E-001	0.00000E+000	...........	1468.97
	845	431.46	4.08604E-001	4.08622E-001	0.00000E+000	...........	1468.97
	846	431.97	4.08609E-001	4.08620E-001	0.00000E+000	...........	1469.06
	847	432.48	4.08614E-001	4.08525E-001	0.00000E+000	...........	1469.06
	848	432.99	4.08611E-001	4.08663E-001	0.00000E+000	...........	1468.97
	849	433.5	4.08607E-001	4.08746E-001	0.00000E+000	...........	1468.97
	850	434.01	4.08618E-001	4.08715E-001	0.00000E+000	...........	1468.97
	851	434.52	4.08649E-001	4.08662E-001	0.00000E+000	...........	1468.97
	852	435.03	4.08678E-001	4.08598E-001	0.00000E+000	...........	1468.97
	853	435.54	4.08683E-001	4.08608E-001	0.00000E+000	...........	1468.97
	854	436.05	4.08664E-001	4.08627E-001	0.00000E+000	...........	1468.97
	855	436.56	4.08640E-001	4.08631E-001	0.00000E+000	...........	1468.97
	856	437.07	4.08625E-001	4.08625E-001	0.00000E+000	...........	1468.97
	857	437.58	4.08622E-001	4.08630E-001	0.00000E+000	...........	1468.97
	858	438.09	4.08624E-001	4.08633E-001	0.00000E+000	...........	1468.97
	859	438.6	4.08627E-001	4.08636E-001	0.00000E+000	...........	1468.97
	860	439.11	4.08629E-001	4.08584E-001	0.00000E+000	...........	1468.97
	861	439.62	4.08627E-001	4.08623E-001	0.00000E+000	...........	1468.97
	862	440.13	4.08620E-001	4.08556E-001	0.00000E+000	...........	1468.97
	863	440.64	4.08610E-001	4.08599E-001	0.00000E+000	...........	1468.97
	864	441.15	4.08599E-001	4.08629E-001	0.00000E+000	...........	1468.97
	865	441.66	4.08595E-001	4.08620E-001	0.00000E+000	...........	1468.97
	866	442.17	4.08601E-001	4.08659E-001	0.00000E+000	...........	1468.88
	867	442.68	4.08613E-001	4.08595E-001	0.00000E+000	...........	1468.88
	868	443.19	4.08623E-001	4.08640E-001	0.00000E+000	...........	1468.88
	869	443.7	4.08627E-001	4.08615E-001	0.00000E+000	...........	1468.88
	870	444.21	4.08625E-001	4.08559E-001	0.00000E+000	...........	1468.97
	871	444.72	4.08618E-001	4.08644E-001	0.00000E+000	...........	1468.97
	872	445.23	4.08612E-001	4.08673E-001	0.00000E+000	...........	1468.97
	873	445.74	4.08615E-001	4.08650E-001	0.00000E+000	...........	1468.97
	874	446.25	4.08628E-001	4.08641E-001	0.00000E+000	...........	1468.97
	875	446.76	4.08641E-001	4.08635E-001	0.00000E+000	...........	1468.97
	876	447.27	4.08646E-001	4.08618E-001	0.00000E+000	...........	1468.97
	877	447.78	4.08643E-001	4.08640E-001	0.00000E+000	...........	1468.97
	878	448.29	4.08637E-001	4.08632E-001	0.00000E+000	...........	1468.88
	879	448.8	4.08633E-001	4.08637E-001	0.00000E+000	...........	1468.88
	880	449.31	4.08633E-001	4.08637E-001	0.00000E+000	...........	1468.88
	881	449.82	4.08634E-001	4.08640E-001	0.00000E+000	...........	1468.89
	882	450.33	4.08636E-001	4.08672E-001	0.00000E+000	...........	1468.97
	883	450.84	4.08640E-001	4.08635E-001	0.00000E+000	...........	1468.91
	884	451.35	4.08645E-001	4.08646E-001	0.00000E+000	...........	1468.79
	885	451.86	4.08648E-001	4.08652E-001	0.00000E+000	...........	1468.83
	886	452.37	4.08649E-001	4.08691E-001	0.00000E+000	...........	1468.88
	887	452.88	4.08653E-001	4.08694E-001	0.00000E+000	...........	1468.88
	888	453.39	4.08663E-001	4.08670E-001	0.00000E+000	...........	1468.88
	889	453.9	4.08673E-001	4.08676E-001	0.00000E+000	...........	1468.88
	890	454.41	4.08678E-001	4.08660E-001	0.00000E+000	...........	1468.88
	891	454.92	4.08677E-001	4.08660E-001	0.00000E+000	...........	1468.88
	892	455.43	4.08673E-001	4.08680E-001	0.00000E+000	...........	1468.88
	893	455.94	4.08669E-001	4.08677E-001	0.00000E+000	...........	1468.88
	894	456.45	4.08669E-001	4.08662E-001	0.00000E+000	...........	1468.88
	895	456.96	4.08670E-001	4.08670E-001	0.00000E+000	...........	1468.88
	896	457.47	4.08671E-001	4.08671E-001	0.00000E+000	...........	1468.88
	897	457.98	4.08670E-001	4.08661E-001	0.00000E+000	...........	1468.97
	898	458.49	4.08668E-001	4.08654E-001	0.00000E+000	...........	1468.97
	899	459	4.08666E-001	4.08652E-001	0.00000E+000	...........	1468.88
	900	459.51	4.08662E-001	4.08654E-001	0.00000E+000	...........	1468.88
	901	460.02	4.08658E-001	4.08652E-001	0.00000E+000	...........	1468.88
	902	460.53	4.08655E-001	4.08654E-001	0.00000E+000	...........	1468.88
	903	461.04	4.08653E-001	4.08649E-001	0.00000E+000	...........	1468.97
	904	461.55	4.08653E-001	4.08659E-001	0.00000E+000	...........	1468.97
	905	462.06	4.08653E-001	4.08649E-001	0.00000E+000	...........	1468.97
	906	462.57	4.08653E-001	4.08648E-001	0.00000E+000	...........	1468.97
	907	463.08	4.08653E-001	4.08672E-001	0.00000E+000	...........	1468.97
	908	463.59	4.08654E-001	4.08672E-001	0.00000E+000	...........	1468.97
	909	464.1	4.08658E-001	4.08678E-001	0.00000E+000	...........	1468.88
	910	464.61	4.08664E-001	4.08656E-001	0.00000E+000	...........	1468.88
	911	465.12	4.08667E-001	4.08627E-001	0.00000E+000	...........	1468.88
	912	465.63	4.08663E-001	4.08607E-001	0.00000E+000	...........	1468.88
	913	466.14	4.08652E-001	4.08636E-001	0.00000E+000	...........	1468.88
	914	466.65	4.08640E-001	4.08703E-001	0.00000E+000	...........	1468.88
	915	467.16	4.08636E-001	4.08605E-001	0.00000E+000	...........	1468.97
	916	467.67	4.08640E-001	4.08586E-001	0.00000E+000	...........	1468.97
	917	468.18	4.08638E-001	4.08620E-001	0.00000E+000	...........	1468.88
	918	468.69	4.08628E-001	4.08600E-001	0.00000E+000	...........	1468.88
	919	469.2	4.08616E-001	4.08616E-001	0.00000E+000	...........	1468.88
	920	469.71	4.08610E-001	4.08647E-001	0.00000E+000	...........	1468.88
	921	470.22	4.08613E-001	4.08671E-001	0.00000E+000	...........	1468.88
	922	470.73	4.08624E-001	4.08659E-001	0.00000E+000	...........	1468.88
	923	471.24	4.08640E-001	4.08687E-001	0.00000E+000	...........	1468.88
	924	471.75	4.08655E-001	4.08682E-001	0.00000E+000	...........	1468.88
	925	472.26	4.08668E-001	4.08697E-001	0.00000E+000	...........	1468.97
	926	472.77	4.08678E-001	4.08693E-001	0.00000E+000	...........	1468.97
	927	473.28	4.08685E-001	4.08702E-001	0.00000E+000	...........	1468.88
	928	473.79	4.08691E-001	4.08702E-001	0.00000E+000	...........	1468.88
	929	474.3	4.08696E-001	4.08697E-001	0.00000E+000	...........	1468.88
	930	474.81	4.08699E-001	4.08715E-001	0.00000E+000	...........	1468.88
	931	475.32	4.08701E-001	4.08706E-001	0.00000E+000	...........	1468.88
	932	475.83	4.08703E-001	4.08679E-001	0.00000E+000	...........	1468.88
	933	476.34	4.08703E-001	4.08717E-001	0.00000E+000	...........	1468.88
	934	476.85	4.08702E-001	4.08717E-001	0.00000E+000	...........	1468.88
	935	477.36	4.08702E-001	4.08690E-001	0.00000E+000	...........	1468.88
	936	477.87	4.08703E-001	4.08669E-001	0.00000E+000	...........	1468.88
	937	478.38	4.08700E-001	4.08643E-001	0.00000E+000	...........	1468.88
	938	478.89	4.08689E-001	4.08656E-001	0.00000E+000	...........	1468.88
	939	479.4	4.08674E-001	4.08652E-001	0.00000E+000	...........	1468.88
	940	479.91	4.08661E-001	4.08652E-001	0.00000E+000	...........	1468.88
	941	480.42	4.08654E-001	4.08646E-001	0.00000E+000	...........	1468.88
	942	480.93	4.08650E-001	4.08606E-001	0.00000E+000	...........	1468.88
	943	481.44	4.08646E-001	4.08688E-001	0.00000E+000	...........	1468.88
	944	481.95	4.08643E-001	4.08658E-001	0.00000E+000	...........	1468.88
	945	482.46	4.08646E-001	4.08628E-001	0.00000E+000	...........	1468.88
	946	482.97	4.08650E-001	4.08679E-001	0.00000E+000	...........	1468.97
	947	483.48	4.08653E-001	4.08661E-001	0.00000E+000	...........	1468.97
	948	483.99	4.08656E-001	4.08648E-001	0.00000E+000	...........	1468.97
	949	484.5	4.08658E-001	4.08648E-001	0.00000E+000	...........	1468.97
	950	485.01	4.08657E-001	4.08647E-001	0.00000E+000	...........	1468.88
	951	485.52	4.08654E-001	4.08649E-001	0.00000E+000	...........	1468.88
	952	486.03	4.08651E-001	4.08650E-001	0.00000E+000	...........	1468.88
	953	486.54	4.08649E-001	4.08647E-001	0.00000E+000	...........	1468.88
	954	487.05	4.08648E-001	4.08638E-001	0.00000E+000	...........	1468.97
	955	487.56	4.08647E-001	4.08637E-001	0.00000E+000	...........	1468.97
	956	488.07	4.08643E-001	4.08556E-001	0.00000E+000	...........	1468.97
	957	488.58	4.08633E-001	4.08621E-001	0.00000E+000	...........	1468.97
	958	489.09	4.08619E-001	4.08625E-001	0.00000E+000	...........	1468.97
	959	489.6	4.08610E-001	4.08630E-001	0.00000E+000	...........	1468.97
	960	490.11	4.08612E-001	4.08657E-001	0.00000E+000	...........	1468.97
	961	490.62	4.08620E-001	4.08602E-001	0.00000E+000	...........	1468.97
	962	491.13	4.08627E-001	4.08613E-001	0.00000E+000	...........	1468.97
	963	491.64	4.08628E-001	4.08633E-001	0.00000E+000	...........	1468.97
	964	492.15	4.08625E-001	4.08629E-001	0.00000E+000	...........	1468.97
	965	492.66	4.08623E-001	4.08631E-001	0.00000E+000	...........	1468.97
	966	493.17	4.08625E-001	4.08634E-001	0.00000E+000	...........	1468.97
	967	493.68	4.08628E-001	4.08629E-001	0.00000E+000	...........	1468.97
	968	494.19	4.08631E-001	4.08641E-001	0.00000E+000	...........	1468.88
	969	494.7	4.08632E-001	4.08641E-001	0.00000E+000	...........	1468.88
	970	495.21	4.08635E-001	4.08647E-001	0.00000E+000	...........	1468.97
	971	495.72	4.08638E-001	4.08645E-001	0.00000E+000	...........	1468.97
	972	496.23	4.08641E-001	4.08645E-001	0.00000E+000	...........	1468.97
	973	496.74	4.08645E-001	4.08701E-001	0.00000E+000	...........	1468.97
	974	497.25	4.08650E-001	4.08607E-001	0.00000E+000	...........	1468.88
	975	497.76	4.08654E-001	4.08653E-001	0.00000E+000	...........	1468.88
	976	498.27	4.08654E-001	4.08657E-001	0.00000E+000	...........	1468.88
	977	498.78	4.08651E-001	4.08674E-001	0.00000E+000	...........	1468.88
	978	499.29	4.08652E-001	4.08688E-001	0.00000E+000	...........	1468.97
	979	499.8	4.08660E-001	4.08701E-001	0.00000E+000	...........	1468.97
	980	500.31	4.08672E-001	4.08696E-001	0.00000E+000	...........	1468.88
	981	500.82	4.08683E-001	4.08680E-001	0.00000E+000	...........	1468.86
	982	501.33	4.08690E-001	4.08693E-001	0.00000E+000	...........	1468.70
	983	501.84	4.08692E-001	4.08683E-001	0.00000E+000	...........	1468.72
	984	502.35	4.08690E-001	4.08685E-001	0.00000E+000	...........	1468.79
	985	502.86	4.08688E-001	4.08681E-001	0.00000E+000	...........	1468.83
	986	503.37	4.08686E-001	4.08671E-001	0.00000E+000	...........	1468.88
	987	503.88	4.08683E-001	4.08670E-001	0.00000E+000	...........	1468.88
	988	504.39	4.08679E-001	4.08664E-001	0.00000E+000	...........	1468.88
	989	504.9	4.08674E-001	4.08669E-001	0.00000E+000	...........	1468.88
	990	505.41	4.08671E-001	4.08686E-001	0.00000E+000	...........	1468.88
	991	505.92	4.08670E-001	4.08644E-001	0.00000E+000	...........	1468.88
	992	506.43	4.08669E-001	4.08666E-001	0.00000E+000	...........	1468.88
	993	506.94	4.08667E-001	4.08671E-001	0.00000E+000	...........	1468.88
	994	507.45	4.08665E-001	4.08668E-001	0.00000E+000	...........	1468.88
	995	507.96	4.08665E-001	4.08658E-001	0.00000E+000	...........	1468.97
	996	508.47	4.08665E-001	4.08667E-001	0.00000E+000	...........	1468.97
	997	508.98	4.08665E-001	4.08651E-001	0.00000E+000	...........	1468.97
	998	509.49	4.08663E-001	4.08635E-001	0.00000E+000	...........	1468.97
	999	510	4.08660E-001	4.08734E-001	0.00000E+000	...........	1468.88
	1000	510.51	4.08660E-001	4.08618E-001	0.00000E+000	...........	1468.88
	1001	511.02	4.08664E-001	4.08639E-001	0.00000E+000	...........	1468.97
	1002	511.53	4.08663E-001	4.08634E-001	0.00000E+000	...........	1468.97
	1003	512.04	4.08654E-001	4.08625E-001	0.00000E+000	...........	1468.88
	1004	512.55	4.08643E-001	4.08630E-001	0.00000E+000	...........	1468.88
	1005	513.06	4.08635E-001	4.08638E-001	0.00000E+000	...........	1468.88
	1006	513.57	4.08632E-001	4.08642E-001	0.00000E+000	...........	1468.88
	1007	514.08	4.08632E-001	4.08632E-001	0.00000E+000	...........	1468.97
	1008	514.59	4.08634E-001	4.08622E-001	0.00000E+000	...........	1468.97
	1009	515.1	4.08634E-001	4.08617E-001	0.00000E+000	...........	1468.88
	1010	515.61	4.08631E-001	4.08623E-001	0.00000E+000	...........	1468.88
	1011	516.12	4.08627E-001	4.08626E-001	0.00000E+000	...........	1468.97
	1012	516.63	4.08623E-001	4.08621E-001	0.00000E+000	...........	1468.97
	1013	517.14	4.08622E-001	4.08613E-001	0.00000E+000	...........	1468.88
	1014	517.65	4.08621E-001	4.08623E-001	0.00000E+000	...........	1468.88
	1015	518.16	4.08620E-001	4.08611E-001	0.00000E+000	...........	1468.88
	1016	518.67	4.08619E-001	4.08606E-001	0.00000E+000	...........	1468.88
	1017	519.18	4.08616E-001	4.08611E-001	0.00000E+000	...........	1468.88
	1018	519.69	4.08613E-001	4.08601E-001	0.00000E+000	...........	1468.88
	1019	520.2	4.08610E-001	4.08603E-001	0.00000E+000	...........	1468.88
	1020	520.71	4.08607E-001	4.08587E-001	0.00000E+000	...........	1468.88
	1021	521.22	4.08603E-001	4.08588E-001	0.00000E+000	...........	1468.97
	1022	521.73	4.08598E-001	4.08599E-001	0.00000E+000	...........	1468.97
	1023	522.24	4.08594E-001	4.08579E-001	0.00000E+000	...........	1468.88
	1024	522.75	4.08592E-001	4.08594E-001	0.00000E+000	...........	1468.88
	1025	523.26	4.08590E-001	4.08599E-001	0.00000E+000	...........	1468.88
	1026	523.77	4.08589E-001	4.08525E-001	0.00000E+000	...........	1468.88
	1027	524.28	4.08584E-001	4.08536E-001	0.00000E+000	...........	1468.88
	1028	524.79	4.08573E-001	4.08586E-001	0.00000E+000	...........	1468.88
	1029	525.3	4.08561E-001	4.08553E-001	0.00000E+000	...........	1468.70
	1030	525.81	4.08556E-001	4.08535E-001	0.00000E+000	...........	1468.70
	1031	526.32	4.08554E-001	4.08510E-001	0.00000E+000	...........	1468.70
	1032	526.83	4.08548E-001	4.08502E-001	0.00000E+000	...........	1468.70
	1033	527.34	4.08535E-001	4.08495E-001	0.00000E+000	...........	1468.70
	1034	527.85	4.08519E-001	4.08452E-001	0.00000E+000	...........	1468.77
	1035	528.36	4.08502E-001	4.08439E-001	0.00000E+000	...........	1468.88
	1036	528.87	4.08484E-001	4.08438E-001	0.00000E+000	...........	1468.88
	1037	529.38	4.08465E-001	4.08422E-001	0.00000E+000	...........	1468.88
	1038	529.89	4.08448E-001	4.08420E-001	0.00000E+000	...........	1468.81
	1039	530.4	4.08436E-001	4.08434E-001	0.00000E+000	...........	1468.79
	1040	530.91	4.08430E-001	4.08445E-001	0.00000E+000	...........	1468.88
	1041	531.42	4.08429E-001	4.08435E-001	0.00000E+000	...........	1468.88
	1042	531.93	4.08432E-001	4.08457E-001	0.00000E+000	...........	1468.88
	1043	532.44	4.08437E-001	4.08455E-001	0.00000E+000	...........	1468.88
	1044	532.95	4.08444E-001	4.08463E-001	0.00000E+000	...........	1468.88
	1045	533.46	4.08450E-001	4.08468E-001	0.00000E+000	...........	1468.88
	1046	533.97	4.08456E-001	4.08470E-001	0.00000E+000	...........	1468.88
	1047	534.48	4.08462E-001	4.08470E-001	0.00000E+000	...........	1468.88
	1048	534.99	4.08466E-001	4.08467E-001	0.00000E+000	...........	1468.88
	1049	535.5	4.08468E-001	4.08455E-001	0.00000E+000	...........	1468.88
	1050	536.01	4.08467E-001	4.08429E-001	0.00000E+000	...........	1468.88
	1051	536.52	4.08461E-001	4.08412E-001	0.00000E+000	...........	1468.88
	1052	537.03	4.08449E-001	4.08404E-001	0.00000E+000	...........	1468.88
	1053	537.54	4.08435E-001	4.08414E-001	0.00000E+000	...........	1468.88
	1054	538.05	4.08422E-001	4.08418E-001	0.00000E+000	...........	1468.88
	1055	538.56	4.08415E-001	4.08421E-001	0.00000E+000	...........	1468.88
	1056	539.07	4.08414E-001	4.08440E-001	0.00000E+000	...........	1468.88
	1057	539.58	4.08418E-001	4.08443E-001	0.00000E+000	...........	1468.88
	1058	540.09	4.08426E-001	4.08471E-001	0.00000E+000	...........	1468.97
	1059	540.6	4.08436E-001	4.08466E-001	0.00000E+000	...........	1468.97
	1060	541.11	4.08448E-001	4.08467E-001	0.00000E+000	...........	1468.88
	1061	541.62	4.08458E-001	4.08468E-001	0.00000E+000	...........	1468.88
	1062	542.13	4.08464E-001	4.08470E-001	0.00000E+000	...........	1468.88
	1063	542.64	4.08467E-001	4.08485E-001	0.00000E+000	...........	1468.88
	1064	543.15	4.08470E-001	4.08479E-001	0.00000E+000	...........	1468.97
	1065	543.66	4.08474E-001	4.08473E-001	0.00000E+000	...........	1468.97
	1066	544.17	4.08476E-001	4.08480E-001	0.00000E+000	...........	1468.88
	1067	544.68	4.08477E-001	4.08474E-001	0.00000E+000	...........	1468.88
	1068	545.19	4.08478E-001	4.08499E-001	0.00000E+000	...........	1468.88
	1069	545.7	4.08479E-001	4.08475E-001	0.00000E+000	...........	1468.88
	1070	546.21	4.08481E-001	4.08479E-001	0.00000E+000	...........	1468.88
	1071	546.72	4.08482E-001	4.08481E-001	0.00000E+000	...........	1468.88
	1072	547.23	4.08482E-001	4.08478E-001	0.00000E+000	...........	1468.88
	1073	547.74	4.08481E-001	4.08475E-001	0.00000E+000	...........	1468.88
	1074	548.25	4.08480E-001	4.08480E-001	0.00000E+000	...........	1468.88
	1075	548.76	4.08478E-001	4.08468E-001	0.00000E+000	...........	1468.88
	1076	549.27	4.08477E-001	4.08463E-001	0.00000E+000	...........	1468.88
	1077	549.78	4.08474E-001	4.08459E-001	0.00000E+000	...........	1468.88
	1078	550.29	4.08470E-001	4.08467E-001	0.00000E+000	...........	1468.88
	1079	550.8	4.08466E-001	4.08466E-001	0.00000E+000	...........	1468.88
	1080	551.31	4.08464E-001	4.08470E-001	0.00000E+000	...........	1468.61
	1081	551.82	4.08464E-001	4.08453E-001	0.00000E+000	...........	1468.60
	1082	552.33	4.08464E-001	4.08452E-001	0.00000E+000	...........	1468.52
	1083	552.84	4.08462E-001	4.08452E-001	0.00000E+000	...........	1468.60
	1084	553.35	4.08459E-001	4.08454E-001	0.00000E+000	...........	1468.79
	1085	553.86	4.08455E-001	4.08441E-001	0.00000E+000	...........	1468.83
	1086	554.37	4.08452E-001	4.08447E-001	0.00000E+000	...........	1468.88
	1087	554.88	4.08450E-001	4.08483E-001	0.00000E+000	...........	1468.88
	1088	555.39	4.08451E-001	4.08431E-001	0.00000E+000	...........	1468.88
	1089	555.9	4.08453E-001	4.08431E-001	0.00000E+000	...........	1468.88
	1090	556.41	4.08451E-001	4.08416E-001	0.00000E+000	...........	1468.88
	1091	556.92	4.08444E-001	4.08448E-001	0.00000E+000	...........	1468.88
	1092	557.43	4.08436E-001	4.08443E-001	0.00000E+000	...........	1468.88
	1093	557.94	4.08433E-001	4.08403E-001	0.00000E+000	...........	1468.97
	1094	558.45	4.08432E-001	4.08439E-001	0.00000E+000	...........	1468.97
	1095	558.96	4.08430E-001	4.08408E-001	0.00000E+000	...........	1468.88
	1096	559.47	4.08426E-001	4.08399E-001	0.00000E+000	...........	1468.88
	1097	559.98	4.08421E-001	4.08444E-001	0.00000E+000	...........	1468.88
	1098	560.49	4.08418E-001	4.08425E-001	0.00000E+000	...........	1468.88
	1099	561	4.08419E-001	4.08432E-001	0.00000E+000	...........	1468.88
	1100	561.51	4.08423E-001	4.08394E-001	0.00000E+000	...........	1468.88
	1101	562.02	4.08423E-001	4.08402E-001	0.00000E+000	...........	1468.97
	1102	562.53	4.08418E-001	4.08382E-001	0.00000E+000	...........	1468.97
	1103	563.04	4.08408E-001	4.08355E-001	0.00000E+000	...........	1468.88
	1104	563.55	4.08395E-001	4.08365E-001	0.00000E+000	...........	1468.88
	1105	564.06	4.08382E-001	4.08371E-001	0.00000E+000	...........	1468.88
	1106	564.57	4.08372E-001	4.08367E-001	0.00000E+000	...........	1468.88
	1107	565.08	4.08367E-001	4.08359E-001	0.00000E+000	...........	1468.88
	1108	565.59	4.08365E-001	4.08357E-001	0.00000E+000	...........	1468.88
	1109	566.1	4.08363E-001	4.08325E-001	0.00000E+000	...........	1468.88
	1110	566.61	4.08357E-001	4.08318E-001	0.00000E+000	...........	1468.88
	1111	567.12	4.08347E-001	4.08319E-001	0.00000E+000	...........	1468.97
	1112	567.63	4.08335E-001	4.08306E-001	0.00000E+000	...........	1468.97
	1113	568.14	4.08324E-001	4.08301E-001	0.00000E+000	...........	1468.88
	1114	568.65	4.08316E-001	4.08297E-001	0.00000E+000	...........	1468.88
	1115	569.16	4.08308E-001	4.08293E-001	0.00000E+000	...........	1468.97
	1116	569.67	4.08303E-001	4.08301E-001	0.00000E+000	...........	1468.97
	1117	570.18	4.08299E-001	4.08294E-001	0.00000E+000	...........	1468.88
	1118	570.69	4.08297E-001	4.08296E-001	0.00000E+000	...........	1468.88
	1119	571.2	4.08297E-001	4.08287E-001	0.00000E+000	...........	1468.88
	1120	571.71	4.08295E-001	4.08280E-001	0.00000E+000	...........	1468.88
	1121	572.22	4.08292E-001	4.08279E-001	0.00000E+000	...........	1468.88
	1122	572.73	4.08288E-001	4.08272E-001	0.00000E+000	...........	1468.88
	1123	573.24	4.08283E-001	4.08271E-001	0.00000E+000	...........	1468.88
	1124	573.75	4.08278E-001	4.08266E-001	0.00000E+000	...........	1468.88
	1125	574.26	4.08274E-001	4.08247E-001	0.00000E+000	...........	1468.88
	1126	574.77	4.08268E-001	4.08230E-001	0.00000E+000	...........	1468.88
	1127	575.28	4.08260E-001	4.08227E-001	0.00000E+000	...........	1468.88
	1128	575.79	4.08248E-001	4.08176E-001	0.00000E+000	...........	1468.88
	1129	576.3	4.08233E-001	4.08183E-001	0.00000E+000	...........	1468.97
	1130	576.81	4.08215E-001	4.08192E-001	0.00000E+000	...........	1468.96
	1131	577.32	4.08200E-001	4.08180E-001	0.00000E+000	...........	1468.43
	1132	577.83	4.08190E-001	4.08183E-001	0.00000E+000	...........	1468.44
	1133	578.34	4.08185E-001	4.08166E-001	0.00000E+000	...........	1468.52
	1134	578.85	4.08182E-001	4.08171E-001	0.00000E+000	...........	1468.66
	1135	579.36	4.08178E-001	4.08172E-001	0.00000E+000	...........	1468.88
	1136	579.87	4.08174E-001	4.08163E-001	0.00000E+000	...........	1468.88
	1137	580.38	4.08171E-001	4.08167E-001	0.00000E+000	...........	1468.88
	1138	580.89	4.08169E-001	4.08168E-001	0.00000E+000	...........	1468.88
	1139	581.4	4.08167E-001	4.08162E-001	0.00000E+000	...........	1468.88
	1140	581.91	4.08166E-001	4.08164E-001	0.00000E+000	...........	1468.88
	1141	582.42	4.08166E-001	4.08165E-001	0.00000E+000	...........	1468.88
	1142	582.93	4.08165E-001	4.08161E-001	0.00000E+000	...........	1468.88
	1143	583.44	4.08164E-001	4.08153E-001	0.00000E+000	...........	1468.88
	1144	583.95	4.08163E-001	4.08163E-001	0.00000E+000	...........	1468.88
	1145	584.46	4.08161E-001	4.08147E-001	0.00000E+000	...........	1468.88
	1146	584.97	4.08159E-001	4.08165E-001	0.00000E+000	...........	1468.97
	1147	585.48	4.08159E-001	4.08258E-001	0.00000E+000	...........	1468.97
	1148	585.99	4.08172E-001	4.08401E-001	0.00000E+000	...........	1468.88
	1149	586.5	4.08200E-001	4.07960E-001	0.00000E+000	...........	1468.88
	1150	587.01	4.08218E-001	4.08041E-001	0.00000E+000	...........	1468.88
	1151	587.52	4.08192E-001	4.08104E-001	0.00000E+000	...........	1468.88
	1152	588.03	4.08139E-001	4.08185E-001	0.00000E+000	...........	1468.97
	1153	588.54	4.08104E-001	4.08039E-001	0.00000E+000	...........	1468.97
	1154	589.05	4.08096E-001	4.08063E-001	0.00000E+000	...........	1468.88
	1155	589.56	4.08095E-001	4.08099E-001	0.00000E+000	...........	1468.88
	1156	590.07	4.08090E-001	4.08175E-001	0.00000E+000	...........	1468.88
	1157	590.58	4.08092E-001	4.08045E-001	0.00000E+000	...........	1468.88
	1158	591.09	4.08099E-001	4.08100E-001	0.00000E+000	...........	1468.88
	1159	591.6	4.08102E-001	4.08069E-001	0.00000E+000	...........	1468.88
	1160	592.11	4.08096E-001	4.08075E-001	0.00000E+000	...........	1468.88
	1161	592.62	4.08086E-001	4.08040E-001	0.00000E+000	...........	1468.88
	1162	593.13	4.08075E-001	4.08036E-001	0.00000E+000	...........	1468.88
	1163	593.64	4.08064E-001	4.08035E-001	0.00000E+000	...........	1468.88
	1164	594.15	4.08051E-001	4.08025E-001	0.00000E+000	...........	1468.88
	1165	594.66	4.08041E-001	4.08024E-001	0.00000E+000	...........	1468.88
	1166	595.17	4.08033E-001	4.08010E-001	0.00000E+000	...........	1468.88
	1167	595.68	4.08027E-001	4.08007E-001	0.00000E+000	...........	1468.88
	1168	596.19	4.08021E-001	4.08005E-001	0.00000E+000	...........	1468.88
	1169	596.7	4.08015E-001	4.08005E-001	0.00000E+000	...........	1468.88
	1170	597.21	4.08010E-001	4.07985E-001	0.00000E+000	...........	1468.88
	1171	597.72	4.08004E-001	4.07981E-001	0.00000E+000	...........	1468.88
	1172	598.23	4.07998E-001	4.07970E-001	0.00000E+000	...........	1468.88
	1173	598.74	4.07990E-001	4.07974E-001	0.00000E+000	...........	1468.88
	1174	599.25	4.07982E-001	4.07966E-001	0.00000E+000	...........	1468.88
	1175	599.76	4.07976E-001	4.07947E-001	0.00000E+000	...........	1468.88
	1176	600.27	4.07969E-001	4.07934E-001	0.00000E+000	...........	1468.97
	1177	600.78	4.07961E-001	4.07946E-001	0.00000E+000	...........	1468.97
	1178	601.29	4.07952E-001	4.07937E-001	0.00000E+000	...........	1468.97
	1179	601.8	4.07945E-001	4.07955E-001	0.00000E+000	...........	1468.97
	1180	602.31	4.07945E-001	4.08055E-001	0.00000E+000	...........	1468.43
	1181	602.82	4.07954E-001	4.07883E-001	0.00000E+000	...........	1468.43
	1182	603.33	4.07962E-001	4.07870E-001	0.00000E+000	...........	1468.43
	1183	603.84	4.07954E-001	4.07877E-001	0.00000E+000	...........	1468.54
	1184	604.35	4.07928E-001	4.07871E-001	0.00000E+000	...........	1468.79
	1185	604.86	4.07900E-001	4.07858E-001	0.00000E+000	...........	1468.79
	1186	605.37	4.07881E-001	4.07888E-001	0.00000E+000	...........	1468.79
	1187	605.88	4.07871E-001	4.07846E-001	0.00000E+000	...........	1468.85
	1188	606.39	4.07868E-001	4.07845E-001	0.00000E+000	...........	1468.88
	1189	606.9	4.07865E-001	4.07925E-001	0.00000E+000	...........	1468.88
	1190	607.41	4.07864E-001	4.07803E-001	0.00000E+000	...........	1468.88
	1191	607.92	4.07863E-001	4.07773E-001	0.00000E+000	...........	1468.79
	1192	608.43	4.07852E-001	4.07783E-001	0.00000E+000	...........	1468.79
	1193	608.94	4.07828E-001	4.07761E-001	0.00000E+000	...........	1468.88
	1194	609.45	4.07802E-001	4.07757E-001	0.00000E+000	...........	1468.88
	1195	609.96	4.07781E-001	4.07743E-001	0.00000E+000	...........	1468.88
	1196	610.47	4.07766E-001	4.07741E-001	0.00000E+000	...........	1468.88
	1197	610.98	4.07756E-001	4.07744E-001	0.00000E+000	...........	1468.88
	1198	611.49	4.07748E-001	4.07723E-001	0.00000E+000	...........	1468.88
	1199	612	4.07742E-001	4.07730E-001	0.00000E+000	...........	1468.88
	1200	612.51	4.07737E-001	4.07710E-001	0.00000E+000	...........	1468.88
	1201	613.02	4.07730E-001	4.07711E-001	0.00000E+000	...........	1468.88
	1202	613.53	4.07724E-001	4.07708E-001	0.00000E+000	...........	1468.88
	1203	614.04	4.07717E-001	4.07713E-001	0.00000E+000	...........	1468.88
	1204	614.55	4.07713E-001	4.07699E-001	0.00000E+000	...........	1468.88
	1205	615.06	4.07709E-001	4.07692E-001	0.00000E+000	...........	1468.88
	1206	615.57	4.07706E-001	4.07697E-001	0.00000E+000	...........	1468.88
	1207	616.08	4.07701E-001	4.07690E-001	0.00000E+000	...........	1468.88
	1208	616.59	4.07697E-001	4.07680E-001	0.00000E+000	...........	1468.88
	1209	617.1	4.07693E-001	4.07659E-001	0.00000E+000	...........	1468.88
	1210	617.61	4.07686E-001	4.07658E-001	0.00000E+000	...........	1468.88
	1211	618.12	4.07677E-001	4.07657E-001	0.00000E+000	...........	1468.88
	1212	618.63	4.07669E-001	4.07663E-001	0.00000E+000	...........	1468.88
	1213	619.14	4.07663E-001	4.07658E-001	0.00000E+000	...........	1468.88
	1214	619.65	4.07660E-001	4.07649E-001	0.00000E+000	...........	1468.88
	1215	620.16	4.07658E-001	4.07665E-001	0.00000E+000	...........	1468.88
	1216	620.67	4.07657E-001	4.07647E-001	0.00000E+000	...........	1468.88
	1217	621.18	4.07656E-001	4.07635E-001	0.00000E+000	...........	1468.88
	1218	621.69	4.07653E-001	4.07647E-001	0.00000E+000	...........	1468.88
	1219	622.2	4.07650E-001	4.07707E-001	0.00000E+000	...........	1468.88
	1220	622.71	4.07653E-001	4.07702E-001	0.00000E+000	...........	1468.88
	1221	623.22	4.07663E-001	4.07628E-001	0.00000E+000	...........	1468.88
	1222	623.73	4.07672E-001	4.07605E-001	0.00000E+000	...........	1468.88
	1223	624.24	4.07666E-001	4.07621E-001	0.00000E+000	...........	1468.88
	1224	624.75	4.07649E-001	4.07615E-001	0.00000E+000	...........	1468.88
	1225	625.26	4.07631E-001	4.07607E-001	0.00000E+000	...........	1468.88
	1226	625.77	4.07619E-001	4.07597E-001	0.00000E+000	...........	1468.88
	1227	626.28	4.07611E-001	4.07588E-001	0.00000E+000	...........	1468.88
	1228	626.79	4.07605E-001	4.07602E-001	0.00000E+000	...........	1468.88
	1229	627.3	4.07605E-001	4.07880E-001	0.00000E+000	...........	1468.97
	1230	627.81	4.07624E-001	4.07552E-001	0.00000E+000	...........	1468.96
	1231	628.32	4.07654E-001	4.07546E-001	0.00000E+000	...........	1468.43
	1232	628.83	4.07659E-001	4.07527E-001	0.00000E+000	...........	1468.44
	1233	629.34	4.07628E-001	4.07519E-001	0.00000E+000	...........	1468.52
	1234	629.85	4.07584E-001	4.07582E-001	0.00000E+000	...........	1468.66
	1235	630.36	4.07554E-001	4.07555E-001	0.00000E+000	...........	1468.88
	1236	630.87	4.07545E-001	4.07533E-001	0.00000E+000	...........	1468.88
	1237	631.38	4.07546E-001	4.07530E-001	0.00000E+000	...........	1468.88
	1238	631.89	4.07546E-001	4.07520E-001	0.00000E+000	...........	1468.81
	1239	632.4	4.07540E-001	4.07504E-001	0.00000E+000	...........	1468.79
	1240	632.91	4.07530E-001	4.07491E-001	0.00000E+000	...........	1468.88
	1241	633.42	4.07519E-001	4.07504E-001	0.00000E+000	...........	1468.88
	1242	633.93	4.07513E-001	4.07708E-001	0.00000E+000	...........	1468.88
	1243	634.44	4.07523E-001	4.07499E-001	0.00000E+000	...........	1468.88
	1244	634.95	4.07548E-001	4.07591E-001	0.00000E+000	...........	1468.88
	1245	635.46	4.07565E-001	4.07468E-001	0.00000E+000	...........	1468.88
	1246	635.97	4.07562E-001	4.07471E-001	0.00000E+000	...........	1468.88
	1247	636.48	4.07540E-001	4.07480E-001	0.00000E+000	...........	1468.88
	1248	636.99	4.07511E-001	4.07468E-001	0.00000E+000	...........	1468.88
	1249	637.5	4.07489E-001	4.07472E-001	0.00000E+000	...........	1468.88
	1250	638.01	4.07476E-001	4.07469E-001	0.00000E+000	...........	1468.88
	1251	638.52	4.07471E-001	4.07465E-001	0.00000E+000	...........	1468.88
	1252	639.03	4.07469E-001	4.07467E-001	0.00000E+000	...........	1468.88
	1253	639.54	4.07468E-001	4.07462E-001	0.00000E+000	...........	1468.88
	1254	640.05	4.07467E-001	4.07458E-001	0.00000E+000	...........	1468.88
	1255	640.56	4.07465E-001	4.07448E-001	0.00000E+000	...........	1468.88
	1256	641.07	4.07461E-001	4.07447E-001	0.00000E+000	...........	1468.88
	1257	641.58	4.07457E-001	4.07448E-001	0.00000E+000	...........	1468.88
	1258	642.09	4.07452E-001	4.07430E-001	0.00000E+000	...........	1468.88
	1259	642.6	4.07447E-001	4.07411E-001	0.00000E+000	...........	1468.88
	1260	643.11	4.07440E-001	4.07421E-001	0.00000E+000	...........	1468.88
	1261	643.62	4.07431E-001	4.07416E-001	0.00000E+000	...........	1468.88
	1262	644.13	4.07424E-001	4.07427E-001	0.00000E+000	...........	1468.88
	1263	644.64	4.07420E-001	4.07424E-001	0.00000E+000	...........	1468.88
	1264	645.15	4.07421E-001	4.07446E-001	0.00000E+000	...........	1468.88
	1265	645.66	4.07424E-001	4.07422E-001	0.00000E+000	...........	1468.88
	1266	646.17	4.07428E-001	4.07415E-001	0.00000E+000	...........	1468.97
	1267	646.68	4.07429E-001	4.07404E-001	0.00000E+000	...........	1468.97
	1268	647.19	4.07425E-001	4.07426E-001	0.00000E+000	...........	1468.88
	1269	647.7	4.07419E-001	4.07388E-001	0.00000E+000	...........	1468.88
	1270	648.21	4.07413E-001	4.07391E-001	0.00000E+000	...........	1468.88
	1271	648.72	4.07408E-001	4.07410E-001	0.00000E+000	...........	1468.88
	1272	649.23	4.07402E-001	4.07384E-001	0.00000E+000	...........	1468.88
	1273	649.74	4.07398E-001	4.07382E-001	0.00000E+000	...........	1468.88
	1274	650.25	4.07395E-001	4.07384E-001	0.00000E+000	...........	1468.88
	1275	650.76	4.07390E-001	4.07375E-001	0.00000E+000	...........	1468.88
	1276	651.27	4.07386E-001	4.07378E-001	0.00000E+000	...........	1468.88
	1277	651.78	4.07382E-001	4.07363E-001	0.00000E+000	...........	1468.88
	1278	652.29	4.07378E-001	4.07358E-001	0.00000E+000	...........	1468.88
	1279	652.8	4.07373E-001	4.07356E-001	0.00000E+000	...........	1468.88
	1280	653.31	4.07367E-001	4.07346E-001	0.00000E+000	...........	1468.88
	1281	653.82	4.07360E-001	4.07335E-001	0.00000E+000	...........	1468.83
	1282	654.33	4.07354E-001	4.07336E-001	0.00000E+000	...........	1468.43
	1283	654.84	4.07347E-001	4.07331E-001	0.00000E+000	...........	1468.54
	1284	655.35	4.07340E-001	4.07322E-001	0.00000E+000	...........	1468.79
	1285	655.86	4.07335E-001	4.07320E-001	0.00000E+000	...........	1468.83
	1286	656.37	4.07330E-001	4.07317E-001	0.00000E+000	...........	1468.88
	1287	656.88	4.07325E-001	4.07312E-001	0.00000E+000	...........	1468.81
	1288	657.39	4.07320E-001	4.07298E-001	0.00000E+000	...........	1468.79
	1289	657.9	4.07315E-001	4.07300E-001	0.00000E+000	...........	1468.87
	1290	658.41	4.07310E-001	4.07300E-001	0.00000E+000	...........	1468.88
	1291	658.92	4.07305E-001	4.07289E-001	0.00000E+000	...........	1468.79
	1292	659.43	4.07301E-001	4.07295E-001	0.00000E+000	...........	1468.79
	1293	659.94	4.07297E-001	4.07299E-001	0.00000E+000	...........	1468.88
	1294	660.45	4.07295E-001	4.07284E-001	0.00000E+000	...........	1468.88
	1295	660.96	4.07294E-001	4.07291E-001	0.00000E+000	...........	1468.88
	1296	661.47	4.07292E-001	4.07279E-001	0.00000E+000	...........	1468.88
	1297	661.98	4.07290E-001	4.07275E-001	0.00000E+000	...........	1468.97
	1298	662.49	4.07286E-001	4.07286E-001	0.00000E+000	...........	1468.97
	1299	663	4.07283E-001	4.07307E-001	0.00000E+000	...........	1468.97
	1300	663.51	4.07283E-001	4.07250E-001	0.00000E+000	...........	1468.97
	1301	664.02	4.07284E-001	4.07264E-001	0.00000E+000	...........	1468.88
	1302	664.53	4.07279E-001	4.07253E-001	0.00000E+000	...........	1468.88
	1303	665.04	4.07271E-001	4.07250E-001	0.00000E+000	...........	1468.88
	1304	665.55	4.07263E-001	4.07246E-001	0.00000E+000	...........	1468.88
	1305	666.06	4.07256E-001	4.07242E-001	0.00000E+000	...........	1468.88
	1306	666.57	4.07250E-001	4.07217E-001	0.00000E+000	...........	1468.88
	1307	667.08	4.07244E-001	4.07225E-001	0.00000E+000	...........	1468.88
	1308	667.59	4.07236E-001	4.07212E-001	0.00000E+000	...........	1468.88
	1309	668.1	4.07228E-001	4.07211E-001	0.00000E+000	...........	1468.88
	1310	668.61	4.07221E-001	4.07208E-001	0.00000E+000	...........	1468.88
	1311	669.12	4.07216E-001	4.07207E-001	0.00000E+000	...........	1468.88
	1312	669.63	4.07211E-001	4.07191E-001	0.00000E+000	...........	1468.88
	1313	670.14	4.07207E-001	4.07195E-001	0.00000E+000	...........	1468.88
	1314	670.65	4.07203E-001	4.07190E-001	0.00000E+000	...........	1468.88
	1315	671.16	4.07198E-001	4.07180E-001	0.00000E+000	...........	1468.88
	1316	671.67	4.07193E-001	4.07166E-001	0.00000E+000	...........	1468.88
	1317	672.18	4.07187E-001	4.07164E-001	0.00000E+000	...........	1468.88
	1318	672.69	4.07179E-001	4.07155E-001	0.00000E+000	...........	1468.88
	1319	673.2	4.07171E-001	4.07157E-001	0.00000E+000	...........	1468.88
	1320	673.71	4.07166E-001	4.07212E-001	0.00000E+000	...........	1468.88
	1321	674.22	4.07166E-001	4.07183E-001	0.00000E+000	...........	1468.88
	1322	674.73	4.07172E-001	4.07142E-001	0.00000E+000	...........	1468.88
	1323	675.24	4.07176E-001	4.07128E-001	0.00000E+000	...........	1468.88
	1324	675.75	4.07170E-001	4.07127E-001	0.00000E+000	...........	1468.88
	1325	676.26	4.07155E-001	4.07113E-001	0.00000E+000	...........	1468.88
	1326	676.77	4.07139E-001	4.07111E-001	0.00000E+000	...........	1468.88
	1327	677.28	4.07127E-001	4.07111E-001	0.00000E+000	...........	1468.88
	1328	677.79	4.07118E-001	4.07115E-001	0.00000E+000	...........	1468.88
	1329	678.3	4.07114E-001	4.07102E-001	0.00000E+000	...........	1468.88
	1330	678.81	4.07111E-001	4.07098E-001	0.00000E+000	...........	1468.87
	1331	679.32	4.07108E-001	4.07087E-001	0.00000E+000	...........	1468.43
	1332	679.83	4.07103E-001	4.07086E-001	0.00000E+000	...........	1468.44
	1333	680.34	4.07097E-001	4.07084E-001	0.00000E+000	...........	1468.52
	1334	680.85	4.07091E-001	4.07065E-001	0.00000E+000	...........	1468.63
	1335	681.36	4.07085E-001	4.07063E-001	0.00000E+000	...........	1468.79
	1336	681.87	4.07079E-001	4.07069E-001	0.00000E+000	...........	1468.84
	1337	682.38	4.07072E-001	4.07058E-001	0.00000E+000	...........	1468.88
	1338	682.89	4.07067E-001	4.07043E-001	0.00000E+000	...........	1468.88
	1339	683.4	4.07062E-001	4.07039E-001	0.00000E+000	...........	1468.88
	1340	683.91	4.07056E-001	4.07039E-001	0.00000E+000	...........	1468.88
	1341	684.42	4.07049E-001	4.07031E-001	0.00000E+000	...........	1468.88
	1342	684.93	4.07042E-001	4.07030E-001	0.00000E+000	...........	1468.88
	1343	685.44	4.07037E-001	4.07013E-001	0.00000E+000	...........	1468.88
	1344	685.95	4.07032E-001	4.07009E-001	0.00000E+000	...........	1468.88
	1345	686.46	4.07025E-001	4.06999E-001	0.00000E+000	...........	1468.88
	1346	686.97	4.07018E-001	4.07008E-001	0.00000E+000	...........	1468.88
	1347	687.48	4.07011E-001	4.07009E-001	0.00000E+000	...........	1468.88
	1348	687.99	4.07007E-001	4.06993E-001	0.00000E+000	...........	1468.88
	1349	688.5	4.07005E-001	4.06999E-001	0.00000E+000	...........	1468.88
	1350	689.01	4.07002E-001	4.06999E-001	0.00000E+000	...........	1468.88
	1351	689.52	4.07002E-001	4.07070E-001	0.00000E+000	...........	1468.88
	1352	690.03	4.07005E-001	4.06956E-001	0.00000E+000	...........	1468.88
	1353	690.54	4.07009E-001	4.06953E-001	0.00000E+000	...........	1468.88
	1354	691.05	4.07004E-001	4.06986E-001	0.00000E+000	...........	1468.88
	1355	691.56	4.06991E-001	4.06974E-001	0.00000E+000	...........	1468.88
	1356	692.07	4.06979E-001	4.06971E-001	0.00000E+000	...........	1468.88
	1357	692.58	4.06974E-001	4.06944E-001	0.00000E+000	...........	1468.88
	1358	693.09	4.06969E-001	4.06941E-001	0.00000E+000	...........	1468.88
	1359	693.6	4.06962E-001	4.06933E-001	0.00000E+000	...........	1468.88
	1360	694.11	4.06952E-001	4.06910E-001	0.00000E+000	...........	1468.88
	1361	694.62	4.06941E-001	4.06909E-001	0.00000E+000	...........	1468.88
	1362	695.13	4.06929E-001	4.06899E-001	0.00000E+000	...........	1468.88
	1363	695.64	4.06918E-001	4.06893E-001	0.00000E+000	...........	1468.88
	1364	696.15	4.06909E-001	4.06869E-001	0.00000E+000	...........	1468.88
	1365	696.66	4.06899E-001	4.06862E-001	0.00000E+000	...........	1468.88
	1366	697.17	4.06888E-001	4.06860E-001	0.00000E+000	...........	1468.88
	1367	697.68	4.06877E-001	4.06851E-001	0.00000E+000	...........	1468.88
	1368	698.19	4.06867E-001	4.06848E-001	0.00000E+000	...........	1468.88
	1369	698.7	4.06859E-001	4.06843E-001	0.00000E+000	...........	1468.88
	1370	699.21	4.06853E-001	4.06832E-001	0.00000E+000	...........	1468.88
	1371	699.72	4.06847E-001	4.06825E-001	0.00000E+000	...........	1468.88
	1372	700.23	4.06841E-001	4.06816E-001	0.00000E+000	...........	1468.88
	1373	700.74	4.06833E-001	4.06811E-001	0.00000E+000	...........	1468.88
	1374	701.25	4.06825E-001	4.06804E-001	0.00000E+000	...........	1468.88
	1375	701.76	4.06818E-001	4.06787E-001	0.00000E+000	...........	1468.88
	1376	702.27	4.06810E-001	4.06810E-001	0.00000E+000	...........	1468.88
	1377	702.78	4.06803E-001	4.06754E-001	0.00000E+000	...........	1468.88
	1378	703.29	4.06796E-001	4.06753E-001	0.00000E+000	...........	1468.97
	1379	703.8	4.06785E-001	4.06747E-001	0.00000E+000	...........	1468.97
	1380	704.31	4.06771E-001	4.06742E-001	0.00000E+000	...........	1468.88
	1381	704.82	4.06758E-001	4.06737E-001	0.00000E+000	...........	1468.84
	1382	705.33	4.06749E-001	4.06727E-001	0.00000E+000	...........	1468.52
	1383	705.84	4.06742E-001	4.06714E-001	0.00000E+000	...........	1468.60
	1384	706.35	4.06734E-001	4.06713E-001	0.00000E+000	...........	1468.79
	1385	706.86	4.06727E-001	4.06708E-001	0.00000E+000	...........	1468.79
	1386	707.37	4.06719E-001	4.06697E-001	0.00000E+000	...........	1468.79
	1387	707.88	4.06713E-001	4.06688E-001	0.00000E+000	...........	1468.79
	1388	708.39	4.06705E-001	4.06673E-001	0.00000E+000	...........	1468.79
	1389	708.9	4.06697E-001	4.06679E-001	0.00000E+000	...........	1468.79
	1390	709.41	4.06689E-001	4.06669E-001	0.00000E+000	...........	1468.79
	1391	709.92	4.06681E-001	4.06667E-001	0.00000E+000	...........	1468.88
	1392	710.43	4.06675E-001	4.06657E-001	0.00000E+000	...........	1468.88
	1393	710.94	4.06670E-001	4.06646E-001	0.00000E+000	...........	1468.88
	1394	711.45	4.06665E-001	4.06677E-001	0.00000E+000	...........	1468.88
	1395	711.96	4.06660E-001	4.06630E-001	0.00000E+000	...........	1468.97
	1396	712.47	4.06657E-001	4.06627E-001	0.00000E+000	...........	1468.97
	1397	712.98	4.06651E-001	4.06632E-001	0.00000E+000	...........	1468.88
	1398	713.49	4.06643E-001	4.06638E-001	0.00000E+000	...........	1468.88
	1399	714	4.06635E-001	4.06584E-001	0.00000E+000	...........	1468.88
	1400	714.51	4.06628E-001	4.06599E-001	0.00000E+000	...........	1468.88
	1401	715.02	4.06618E-001	4.06596E-001	0.00000E+000	...........	1468.97
	1402	715.53	4.06609E-001	4.06653E-001	0.00000E+000	...........	1468.97
	1403	716.04	4.06605E-001	4.06570E-001	0.00000E+000	...........	1468.97
	1404	716.55	4.06606E-001	4.06581E-001	0.00000E+000	...........	1468.97
	1405	717.06	4.06604E-001	4.06582E-001	0.00000E+000	...........	1468.88
	1406	717.57	4.06597E-001	4.06600E-001	0.00000E+000	...........	1468.88
	1407	718.08	4.06590E-001	4.06589E-001	0.00000E+000	...........	1468.88
	1408	718.59	4.06588E-001	4.06582E-001	0.00000E+000	...........	1468.88
	1409	719.1	4.06588E-001	4.06565E-001	0.00000E+000	...........	1468.97
	1410	719.61	4.06585E-001	4.06548E-001	0.00000E+000	...........	1468.97
	1411	720.12	4.06578E-001	4.06530E-001	0.00000E+000	...........	1468.88
	1412	720.63	4.06565E-001	4.06519E-001	0.00000E+000	...........	1468.88
	1413	721.14	4.06550E-001	4.06512E-001	0.00000E+000	...........	1468.88
	1414	721.65	4.06536E-001	4.06516E-001	0.00000E+000	...........	1468.88
	1415	722.16	4.06525E-001	4.06513E-001	0.00000E+000	...........	1468.88
	1416	722.67	4.06518E-001	4.06519E-001	0.00000E+000	...........	1468.88
	1417	723.18	4.06515E-001	4.06502E-001	0.00000E+000	...........	1468.88
	1418	723.69	4.06513E-001	4.06487E-001	0.00000E+000	...........	1468.88
	1419	724.2	4.06509E-001	4.06467E-001	0.00000E+000	...........	1468.88
	1420	724.71	4.06500E-001	4.06441E-001	0.00000E+000	...........	1468.88
	1421	725.22	4.06485E-001	4.06439E-001	0.00000E+000	...........	1468.88
	1422	725.73	4.06469E-001	4.06441E-001	0.00000E+000	...........	1468.88
	1423	726.24	4.06454E-001	4.06440E-001	0.00000E+000	...........	1468.97
	1424	726.75	4.06445E-001	4.06438E-001	0.00000E+000	...........	1468.97
	1425	727.26	4.06441E-001	4.06428E-001	0.00000E+000	...........	1468.88
	1426	727.77	4.06438E-001	4.06417E-001	0.00000E+000	...........	1468.88
	1427	728.28	4.06433E-001	4.06397E-001	0.00000E+000	...........	1468.88
	1428	728.79	4.06426E-001	4.06392E-001	0.00000E+000	...........	1468.88
	1429	729.3	4.06415E-001	4.06389E-001	0.00000E+000	...........	1468.88
	1430	729.81	4.06405E-001	4.06385E-001	0.00000E+000	...........	1468.88
	1431	730.32	4.06396E-001	4.06372E-001	0.00000E+000	...........	1468.88
	1432	730.83	4.06389E-001	4.06385E-001	0.00000E+000	...........	1468.80
	1433	731.34	4.06384E-001	4.06367E-001	0.00000E+000	...........	1468.52
	1434	731.85	4.06380E-001	4.06363E-001	0.00000E+000	...........	1468.66
	1435	732.36	4.06375E-001	4.06361E-001	0.00000E+000	...........	1468.88
	1436	732.87	4.06370E-001	4.06344E-001	0.00000E+000	...........	1468.88
	1437	733.38	4.06364E-001	4.06343E-001	0.00000E+000	...........	1468.88
	1438	733.89	4.06357E-001	4.06332E-001	0.00000E+000	...........	1468.88
	1439	734.4	4.06349E-001	4.06317E-001	0.00000E+000	...........	1468.88
	1440	734.91	4.06340E-001	4.06312E-001	0.00000E+000	...........	1468.79
	1441	735.42	4.06331E-001	4.06295E-001	0.00000E+000	...........	1468.79
	1442	735.93	4.06321E-001	4.06298E-001	0.00000E+000	...........	1468.88
	1443	736.44	4.06311E-001	4.06286E-001	0.00000E+000	...........	1468.88
	1444	736.95	4.06302E-001	4.06281E-001	0.00000E+000	...........	1468.88
	1445	737.46	4.06294E-001	4.06268E-001	0.00000E+000	...........	1468.88
	1446	737.97	4.06287E-001	4.06260E-001	0.00000E+000	...........	1468.88
	1447	738.48	4.06279E-001	4.06257E-001	0.00000E+000	...........	1468.88
	1448	738.99	4.06271E-001	4.06249E-001	0.00000E+000	...........	1468.88
	1449	739.5	4.06263E-001	4.06238E-001	0.00000E+000	...........	1468.88
	1450	740.01	4.06256E-001	4.06231E-001	0.00000E+000	...........	1468.88
	1451	740.52	4.06248E-001	4.06224E-001	0.00000E+000	...........	1468.88
	1452	741.03	4.06240E-001	4.06214E-001	0.00000E+000	...........	1468.88
	1453	741.54	4.06232E-001	4.06202E-001	0.00000E+000	...........	1468.88
	1454	742.05	4.06223E-001	4.06188E-001	0.00000E+000	...........	1468.88
	1455	742.56	4.06213E-001	4.06193E-001	0.00000E+000	...........	1468.88
	1456	743.07	4.06204E-001	4.06189E-001	0.00000E+000	...........	1468.88
	1457	743.58	4.06196E-001	4.06172E-001	0.00000E+000	...........	1468.88
	1458	744.09	4.06191E-001	4.06187E-001	0.00000E+000	...........	1468.97
	1459	744.6	4.06186E-001	4.06163E-001	0.00000E+000	...........	1468.97
	1460	745.11	4.06181E-001	4.06173E-001	0.00000E+000	...........	1468.88
	1461	745.62	4.06177E-001	4.06172E-001	0.00000E+000	...........	1468.88
	1462	746.13	4.06174E-001	4.06157E-001	0.00000E+000	...........	1468.88
	1463	746.64	4.06170E-001	4.06161E-001	0.00000E+000	...........	1468.88
	1464	747.15	4.06167E-001	4.06172E-001	0.00000E+000	...........	1468.88
	1465	747.66	4.06166E-001	4.06228E-001	0.00000E+000	...........	1468.88
	1466	748.17	4.06170E-001	4.06121E-001	0.00000E+000	...........	1468.88
	1467	748.68	4.06175E-001	4.06169E-001	0.00000E+000	...........	1468.88
	1468	749.19	4.06173E-001	4.06091E-001	0.00000E+000	...........	1468.88
	1469	749.7	4.06160E-001	4.06090E-001	0.00000E+000	...........	1468.88
	1470	750.21	4.06139E-001	4.06093E-001	0.00000E+000	...........	1468.88
	1471	750.72	4.06118E-001	4.06081E-001	0.00000E+000	...........	1468.88
	1472	751.23	4.06100E-001	4.06062E-001	0.00000E+000	...........	1468.88
	1473	751.74	4.06088E-001	4.06053E-001	0.00000E+000	...........	1468.88
	1474	752.25	4.06077E-001	4.06034E-001	0.00000E+000	...........	1468.88
	1475	752.76	4.06065E-001	4.06039E-001	0.00000E+000	...........	1468.88
	1476	753.27	4.06054E-001	4.06030E-001	0.00000E+000	...........	1468.88
	1477	753.78	4.06043E-001	4.06009E-001	0.00000E+000	...........	1468.88
	1478	754.29	4.06034E-001	4.06005E-001	0.00000E+000	...........	1468.88
	1479	754.8	4.06025E-001	4.05995E-001	0.00000E+000	...........	1468.88
	1480	755.31	4.06016E-001	4.06010E-001	0.00000E+000	...........	1468.88
	1481	755.82	4.06007E-001	4.05950E-001	0.00000E+000	...........	1468.88
	1482	756.33	4.06000E-001	4.06038E-001	0.00000E+000	...........	1468.88
	1483	756.84	4.05995E-001	4.05977E-001	0.00000E+000	...........	1468.85
	1484	757.35	4.05993E-001	4.05965E-001	0.00000E+000	...........	1468.79
	1485	757.86	4.05990E-001	4.05913E-001	0.00000E+000	...........	1468.83
	1486	758.37	4.05979E-001	4.05960E-001	0.00000E+000	...........	1468.88
	1487	758.88	4.05964E-001	4.05958E-001	0.00000E+000	...........	1468.88
	1488	759.39	4.05953E-001	4.05959E-001	0.00000E+000	...........	1468.88
	1489	759.9	4.05950E-001	4.05955E-001	0.00000E+000	...........	1468.88
	1490	760.41	4.05952E-001	4.05924E-001	0.00000E+000	...........	1468.88
	1491	760.92	4.05951E-001	4.05918E-001	0.00000E+000	...........	1468.88
	1492	761.43	4.05944E-001	4.05899E-001	0.00000E+000	...........	1468.88
	1493	761.94	4.05932E-001	4.05876E-001	0.00000E+000	...........	1468.88
	1494	762.45	4.05916E-001	4.05867E-001	0.00000E+000	...........	1468.88
	1495	762.96	4.05900E-001	4.05876E-001	0.00000E+000	...........	1468.88
	1496	763.47	4.05886E-001	4.05873E-001	0.00000E+000	...........	1468.88
	1497	763.98	4.05878E-001	4.05907E-001	0.00000E+000	...........	1468.88
	1498	764.49	4.05876E-001	4.05838E-001	0.00000E+000	...........	1468.88
	1499	765	4.05876E-001	4.05853E-001	0.00000E+000	...........	1468.97
	1500	765.51	4.05871E-001	4.05826E-001	0.00000E+000	...........	1468.97
	1501	766.02	4.05860E-001	4.05812E-001	0.00000E+000	...........	1468.88
	1502	766.53	4.05847E-001	4.05853E-001	0.00000E+000	...........	1468.88
	1503	767.04	4.05837E-001	4.05864E-001	0.00000E+000	...........	1468.97
	1504	767.55	4.05835E-001	4.05801E-001	0.00000E+000	...........	1468.97
	1505	768.06	4.05837E-001	4.05826E-001	0.00000E+000	...........	1468.88
	1506	768.57	4.05835E-001	4.05838E-001	0.00000E+000	...........	1468.88
	1507	769.08	4.05830E-001	4.05772E-001	0.00000E+000	...........	1468.88
	1508	769.59	4.05822E-001	4.05790E-001	0.00000E+000	...........	1468.88
	1509	770.1	4.05812E-001	4.05786E-001	0.00000E+000	...........	1468.88
	1510	770.61	4.05800E-001	4.05783E-001	0.00000E+000	...........	1468.88
	1511	771.12	4.05791E-001	4.05753E-001	0.00000E+000	...........	1468.88
	1512	771.63	4.05782E-001	4.05737E-001	0.00000E+000	...........	1468.88
	1513	772.14	4.05772E-001	4.05747E-001	0.00000E+000	...........	1468.88
	1514	772.65	4.05760E-001	4.05704E-001	0.00000E+000	...........	1468.88
	1515	773.16	4.05747E-001	4.05734E-001	0.00000E+000	...........	1468.88
	1516	773.67	4.05735E-001	4.05709E-001	0.00000E+000	...........	1468.88
	1517	774.18	4.05727E-001	4.05736E-001	0.00000E+000	...........	1468.88
	1518	774.69	4.05722E-001	4.05689E-001	0.00000E+000	...........	1468.88
	1519	775.2	4.05719E-001	4.05693E-001	0.00000E+000	...........	1468.88
	1520	775.71	4.05712E-001	4.05677E-001	0.00000E+000	...........	1468.88
	1521	776.22	4.05703E-001	4.05682E-001	0.00000E+000	...........	1468.88
	1522	776.73	4.05693E-001	4.05655E-001	0.00000E+000	...........	1468.88
	1523	777.24	4.05683E-001	4.05655E-001	0.00000E+000	...........	1468.88
	1524	777.75	4.05673E-001	4.05636E-001	0.00000E+000	...........	1468.88
	1525	778.26	4.05662E-001	4.05623E-001	0.00000E+000	...........	1468.88
	1526	778.77	4.05651E-001	4.05621E-001	0.00000E+000	...........	1468.88
	1527	779.28	4.05639E-001	4.05607E-001	0.00000E+000	...........	1468.88
	1528	779.79	4.05628E-001	4.05587E-001	0.00000E+000	...........	1468.88
	1529	780.3	4.05617E-001	4.05581E-001	0.00000E+000	...........	1468.88
	1530	780.81	4.05605E-001	4.05575E-001	0.00000E+000	...........	1468.88
	1531	781.32	4.05594E-001	4.05570E-001	0.00000E+000	...........	1468.88
	1532	781.83	4.05584E-001	4.05564E-001	0.00000E+000	...........	1468.80
	1533	782.34	4.05576E-001	4.05555E-001	0.00000E+000	...........	1468.52
	1534	782.85	4.05570E-001	4.05541E-001	0.00000E+000	...........	1468.63
	1535	783.36	4.05563E-001	4.05551E-001	0.00000E+000	...........	1468.79
	1536	783.87	4.05556E-001	4.05557E-001	0.00000E+000	...........	1468.79
	1537	784.38	4.05552E-001	4.05555E-001	0.00000E+000	...........	1468.79
	1538	784.89	4.05551E-001	4.05545E-001	0.00000E+000	...........	1468.79
	1539	785.4	4.05552E-001	4.05536E-001	0.00000E+000	...........	1468.79
	1540	785.91	4.05550E-001	4.05546E-001	0.00000E+000	...........	1468.88
	1541	786.42	4.05547E-001	4.05544E-001	0.00000E+000	...........	1468.88
	1542	786.93	4.05544E-001	4.05532E-001	0.00000E+000	...........	1468.79
	1543	787.44	4.05542E-001	4.05535E-001	0.00000E+000	...........	1468.79
	1544	787.95	4.05540E-001	4.05532E-001	0.00000E+000	...........	1468.88
	1545	788.46	4.05537E-001	4.05520E-001	0.00000E+000	...........	1468.88
	1546	788.97	4.05533E-001	4.05517E-001	0.00000E+000	...........	1468.88
	1547	789.48	4.05529E-001	4.05511E-001	0.00000E+000	...........	1468.88
	1548	789.99	4.05523E-001	4.05500E-001	0.00000E+000	...........	1468.88
	1549	790.5	4.05517E-001	4.05495E-001	0.00000E+000	...........	1468.88
	1550	791.01	4.05510E-001	4.05481E-001	0.00000E+000	...........	1468.97
	1551	791.52	4.05502E-001	4.05473E-001	0.00000E+000	...........	1468.97
	1552	792.03	4.05493E-001	4.05466E-001	0.00000E+000	...........	1468.88
	1553	792.54	4.05484E-001	4.05459E-001	0.00000E+000	...........	1468.88
	1554	793.05	4.05475E-001	4.05441E-001	0.00000E+000	...........	1468.88
	1555	793.56	4.05466E-001	4.05428E-001	0.00000E+000	...........	1468.88
	1556	794.07	4.05455E-001	4.05420E-001	0.00000E+000	...........	1468.88
	1557	794.58	4.05444E-001	4.05411E-001	0.00000E+000	...........	1468.88
	1558	795.09	4.05432E-001	4.05397E-001	0.00000E+000	...........	1468.88
	1559	795.6	4.05421E-001	4.05387E-001	0.00000E+000	...........	1468.88
	1560	796.11	4.05410E-001	4.05377E-001	0.00000E+000	...........	1468.88
	1561	796.62	4.05399E-001	4.05387E-001	0.00000E+000	...........	1468.88
	1562	797.13	4.05390E-001	4.05361E-001	0.00000E+000	...........	1468.88
	1563	797.64	4.05383E-001	4.05354E-001	0.00000E+000	...........	1468.88
	1564	798.15	4.05375E-001	4.05357E-001	0.00000E+000	...........	1468.88
	1565	798.66	4.05367E-001	4.05356E-001	0.00000E+000	...........	1468.88
	1566	799.17	4.05361E-001	4.05344E-001	0.00000E+000	...........	1468.88
	1567	799.68	4.05356E-001	4.05342E-001	0.00000E+000	...........	1468.88
	1568	800.19	4.05351E-001	4.05333E-001	0.00000E+000	...........	1468.88
	1569	800.7	4.05347E-001	4.05329E-001	0.00000E+000	...........	1468.88
	1570	801.21	4.05341E-001	4.05318E-001	0.00000E+000	...........	1468.88
	1571	801.72	4.05334E-001	4.05310E-001	0.00000E+000	...........	1468.88
	1572	802.23	4.05327E-001	4.05304E-001	0.00000E+000	...........	1468.97
	1573	802.74	4.05320E-001	4.05301E-001	0.00000E+000	...........	1468.97
	1574	803.25	4.05313E-001	4.05294E-001	0.00000E+000	...........	1468.88
	1575	803.76	4.05306E-001	4.05287E-001	0.00000E+000	...........	1468.88
	1576	804.27	4.05300E-001	4.05290E-001	0.00000E+000	...........	1468.97
	1577	804.78	4.05295E-001	4.05273E-001	0.00000E+000	...........	1468.97
	1578	805.29	4.05290E-001	4.05271E-001	0.00000E+000	...........	1468.97
	1579	805.8	4.05284E-001	4.05267E-001	0.00000E+000	...........	1468.97
	1580	806.31	4.05278E-001	4.05260E-001	0.00000E+000	...........	1468.88
	1581	806.82	4.05272E-001	4.05255E-001	0.00000E+000	...........	1468.88
	1582	807.33	4.05267E-001	4.05252E-001	0.00000E+000	...........	1468.88
	1583	807.84	4.05261E-001	4.05247E-001	0.00000E+000	...........	1468.85
	1584	808.35	4.05256E-001	4.05233E-001	0.00000E+000	...........	1468.79
	1585	808.86	4.05251E-001	4.05234E-001	0.00000E+000	...........	1468.83
	1586	809.37	4.05245E-001	4.05229E-001	0.00000E+000	...........	1468.88
	1587	809.88	4.05239E-001	4.05216E-001	0.00000E+000	...........	1468.81
	1588	810.39	4.05233E-001	4.05212E-001	0.00000E+000	...........	1468.79
	1589	810.9	4.05226E-001	4.05204E-001	0.00000E+000	...........	1468.87
	1590	811.41	4.05219E-001	4.05200E-001	0.00000E+000	...........	1468.88
	1591	811.92	4.05213E-001	4.05198E-001	0.00000E+000	...........	1468.88
	1592	812.43	4.05207E-001	4.05195E-001	0.00000E+000	...........	1468.88
	1593	812.94	4.05202E-001	4.05186E-001	0.00000E+000	...........	1468.88
	1594	813.45	4.05197E-001	4.05175E-001	0.00000E+000	...........	1468.88
	1595	813.96	4.05192E-001	4.05177E-001	0.00000E+000	...........	1468.88
	1596	814.47	4.05186E-001	4.05176E-001	0.00000E+000	...........	1468.88
	1597	814.98	4.05181E-001	4.05166E-001	0.00000E+000	...........	1468.97
	1598	815.49	4.05177E-001	4.05161E-001	0.00000E+000	...........	1468.97
	1599	816	4.05173E-001	4.05165E-001	0.00000E+000	...........	1468.88
	1600	816.51	4.05168E-001	4.05155E-001	0.00000E+000	...........	1468.88
	1601	817.02	4.05165E-001	4.05162E-001	0.00000E+000	...........	1468.88
	1602	817.53	4.05161E-001	4.05138E-001	0.00000E+000	...........	1468.88
	1603	818.04	4.05158E-001	4.05140E-001	0.00000E+000	...........	1468.97
	1604	818.55	4.05153E-001	4.05132E-001	0.00000E+000	...........	1468.97
	1605	819.06	4.05146E-001	4.05127E-001	0.00000E+000	...........	1468.88
	1606	819.57	4.05140E-001	4.05138E-001	0.00000E+000	...........	1468.88
	1607	820.08	4.05135E-001	4.05130E-001	0.00000E+000	...........	1468.88
	1608	820.59	4.05133E-001	4.05119E-001	0.00000E+000	...........	1468.88
	1609	821.1	4.05131E-001	4.05117E-001	0.00000E+000	...........	1468.88
	1610	821.61	4.05128E-001	4.05119E-001	0.00000E+000	...........	1468.88
	1611	822.12	4.05124E-001	4.05112E-001	0.00000E+000	...........	1468.88
	1612	822.63	4.05120E-001	4.05107E-001	0.00000E+000	...........	1468.88
	1613	823.14	4.05116E-001	4.05101E-001	0.00000E+000	...........	1468.88
	1614	823.65	4.05112E-001	4.05099E-001	0.00000E+000	...........	1468.88
	1615	824.16	4.05107E-001	4.05080E-001	0.00000E+000	...........	1468.88
	1616	824.67	4.05102E-001	4.05087E-001	0.00000E+000	...........	1468.88
	1617	825.18	4.05095E-001	4.05073E-001	0.00000E+000	...........	1468.88
	1618	825.69	4.05088E-001	4.05070E-001	0.00000E+000	...........	1468.88
	1619	826.2	4.05082E-001	4.05064E-001	0.00000E+000	...........	1468.88
	1620	826.71	4.05076E-001	4.05069E-001	0.00000E+000	...........	1468.88
	1621	827.22	4.05071E-001	4.05052E-001	0.00000E+000	...........	1468.97
	1622	827.73	4.05067E-001	4.05058E-001	0.00000E+000	...........	1468.97
	1623	828.24	4.05063E-001	4.05057E-001	0.00000E+000	...........	1468.88
	1624	828.75	4.05060E-001	4.05044E-001	0.00000E+000	...........	1468.88
	1625	829.26	4.05056E-001	4.05050E-001	0.00000E+000	...........	1468.88
	1626	829.77	4.05053E-001	4.05042E-001	0.00000E+000	...........	1468.88
	1627	830.28	4.05050E-001	4.05042E-001	0.00000E+000	...........	1468.88
	1628	830.79	4.05047E-001	4.05040E-001	0.00000E+000	...........	1468.88
	1629	831.3	4.05044E-001	4.05028E-001	0.00000E+000	...........	1468.88
	1630	831.81	4.05041E-001	4.05026E-001	0.00000E+000	...........	1468.88
	1631	832.32	4.05037E-001	4.05022E-001	0.00000E+000	...........	1468.70
	1632	832.83	4.05032E-001	4.05023E-001	0.00000E+000	...........	1468.72
	1633	833.34	4.05027E-001	4.05011E-001	0.00000E+000	...........	1468.79
	1634	833.85	4.05023E-001	4.05014E-001	0.00000E+000	...........	1468.82
	1635	834.36	4.05019E-001	4.05009E-001	0.00000E+000	...........	1468.88
	1636	834.87	4.05016E-001	4.05002E-001	0.00000E+000	...........	1468.88
	1637	835.38	4.05012E-001	4.04995E-001	0.00000E+000	...........	1468.88
	1638	835.89	4.05007E-001	4.04990E-001	0.00000E+000	...........	1468.88
	1639	836.4	4.05002E-001	4.04986E-001	0.00000E+000	...........	1468.88
	1640	836.91	4.04997E-001	4.04981E-001	0.00000E+000	...........	1468.79
	1641	837.42	4.04991E-001	4.04990E-001	0.00000E+000	...........	1468.79
	1642	837.93	4.04988E-001	4.04980E-001	0.00000E+000	...........	1468.88
	1643	838.44	4.04986E-001	4.04986E-001	0.00000E+000	...........	1468.88
	1644	838.95	4.04985E-001	4.04974E-001	0.00000E+000	...........	1468.88
	1645	839.46	4.04983E-001	4.04970E-001	0.00000E+000	...........	1468.88
	1646	839.97	4.04980E-001	4.04965E-001	0.00000E+000	...........	1468.88
	1647	840.48	4.04976E-001	4.04954E-001	0.00000E+000	...........	1468.88
	1648	840.99	4.04970E-001	4.04951E-001	0.00000E+000	...........	1468.88
	1649	841.5	4.04964E-001	4.04951E-001	0.00000E+000	...........	1468.88
	1650	842.01	4.04958E-001	4.04939E-001	0.00000E+000	...........	1468.88
	1651	842.52	4.04952E-001	4.04938E-001	0.00000E+000	...........	1468.88
	1652	843.03	4.04947E-001	4.04932E-001	0.00000E+000	...........	1468.88
	1653	843.54	4.04943E-001	4.04930E-001	0.00000E+000	...........	1468.88
	1654	844.05	4.04938E-001	4.04919E-001	0.00000E+000	...........	1468.97
	1655	844.56	4.04933E-001	4.04915E-001	0.00000E+000	...........	1468.97
	1656	845.07	4.04928E-001	4.04926E-001	0.00000E+000	...........	1468.88
	1657	845.58	4.04923E-001	4.04909E-001	0.00000E+000	...........	1468.88
	1658	846.09	4.04920E-001	4.04897E-001	0.00000E+000	...........	1468.88
	1659	846.6	4.04916E-001	4.04898E-001	0.00000E+000	...........	1468.88
	1660	847.11	4.04910E-001	4.04880E-001	0.00000E+000	...........	1468.88
	1661	847.62	4.04902E-001	4.04887E-001	0.00000E+000	...........	1468.88
	1662	848.13	4.04895E-001	4.04877E-001	0.00000E+000	...........	1468.88
	1663	848.64	4.04889E-001	4.04884E-001	0.00000E+000	...........	1468.88
	1664	849.15	4.04885E-001	4.04890E-001	0.00000E+000	...........	1468.88
	1665	849.66	4.04883E-001	4.04872E-001	0.00000E+000	...........	1468.88
	1666	850.17	4.04883E-001	4.04882E-001	0.00000E+000	...........	1468.88
	1667	850.68	4.04882E-001	4.04867E-001	0.00000E+000	...........	1468.88
	1668	851.19	4.04879E-001	4.04862E-001	0.00000E+000	...........	1468.88
	1669	851.7	4.04875E-001	4.04858E-001	0.00000E+000	...........	1468.88
	1670	852.21	4.04869E-001	4.04844E-001	0.00000E+000	...........	1468.88
	1671	852.72	4.04863E-001	4.04852E-001	0.00000E+000	...........	1468.88
	1672	853.23	4.04856E-001	4.04828E-001	0.00000E+000	...........	1468.88
	1673	853.74	4.04850E-001	4.04830E-001	0.00000E+000	...........	1468.88
	1674	854.25	4.04843E-001	4.04827E-001	0.00000E+000	...........	1468.88
	1675	854.76	4.04836E-001	4.04828E-001	0.00000E+000	...........	1468.88
	1676	855.27	4.04831E-001	4.04824E-001	0.00000E+000	...........	1468.88
	1677	855.78	4.04828E-001	4.04815E-001	0.00000E+000	...........	1468.88
	1678	856.29	4.04825E-001	4.04804E-001	0.00000E+000	...........	1468.88
	1679	856.8	4.04821E-001	4.04809E-001	0.00000E+000	...........	1468.88
	1680	857.31	4.04816E-001	4.04808E-001	0.00000E+000	...........	1468.70
	1681	857.82	4.04811E-001	4.04812E-001	0.00000E+000	...........	1468.70
	1682	858.33	4.04809E-001	4.04801E-001	0.00000E+000	...........	1468.70
	1683	858.84	4.04808E-001	4.04793E-001	0.00000E+000	...........	1468.72
	1684	859.35	4.04806E-001	4.04796E-001	0.00000E+000	...........	1468.79
	1685	859.86	4.04802E-001	4.04798E-001	0.00000E+000	...........	1468.83
	1686	860.37	4.04799E-001	4.04789E-001	0.00000E+000	...........	1468.88
	1687	860.88	4.04796E-001	4.04787E-001	0.00000E+000	...........	1468.88
	1688	861.39	4.04794E-001	4.04787E-001	0.00000E+000	...........	1468.88
	1689	861.9	4.04791E-001	4.04772E-001	0.00000E+000	...........	1468.88
	1690	862.41	4.04787E-001	4.04767E-001	0.00000E+000	...........	1468.88
	1691	862.92	4.04782E-001	4.04773E-001	0.00000E+000	...........	1468.88
	1692	863.43	4.04777E-001	4.04772E-001	0.00000E+000	...........	1468.88
	1693	863.94	4.04773E-001	4.04752E-001	0.00000E+000	...........	1468.88
	1694	864.45	4.04769E-001	4.04757E-001	0.00000E+000	...........	1468.88
	1695	864.96	4.04765E-001	4.04758E-001	0.00000E+000	...........	1468.88
	1696	865.47	4.04761E-001	4.04762E-001	0.00000E+000	...........	1468.88
	1697	865.98	4.04759E-001	4.04755E-001	0.00000E+000	...........	1468.88
	1698	866.49	4.04758E-001	4.04750E-001	0.00000E+000	...........	1468.88
	1699	867	4.04757E-001	4.04740E-001	0.00000E+000	...........	1468.88
	1700	867.51	4.04754E-001	4.04735E-001	0.00000E+000	...........	1468.88
	1701	868.02	4.04749E-001	4.04730E-001	0.00000E+000	...........	1468.88
	1702	868.53	4.04743E-001	4.04728E-001	0.00000E+000	...........	1468.88
	1703	869.04	4.04737E-001	4.04726E-001	0.00000E+000	...........	1468.88
	1704	869.55	4.04732E-001	4.04721E-001	0.00000E+000	...........	1468.88
	1705	870.06	4.04728E-001	4.04708E-001	0.00000E+000	...........	1468.97
	1706	870.57	4.04724E-001	4.04703E-001	0.00000E+000	...........	1468.97
	1707	871.08	4.04718E-001	4.04712E-001	0.00000E+000	...........	1468.88
	1708	871.59	4.04713E-001	4.04701E-001	0.00000E+000	...........	1468.88
	1709	872.1	4.04709E-001	4.04699E-001	0.00000E+000	...........	1468.88
	1710	872.61	4.04706E-001	4.04710E-001	0.00000E+000	...........	1468.88
	1711	873.12	4.04704E-001	4.04703E-001	0.00000E+000	...........	1468.88
	1712	873.63	4.04704E-001	4.04705E-001	0.00000E+000	...........	1468.88
	1713	874.14	4.04704E-001	4.04703E-001	0.00000E+000	...........	1468.88
	1714	874.65	4.04704E-001	4.04700E-001	0.00000E+000	...........	1468.88
	1715	875.16	4.04704E-001	4.04694E-001	0.00000E+000	...........	1468.88
	1716	875.67	4.04702E-001	4.04687E-001	0.00000E+000	...........	1468.88
	1717	876.18	4.04699E-001	4.04683E-001	0.00000E+000	...........	1468.97
	1718	876.69	4.04694E-001	4.04689E-001	0.00000E+000	...........	1468.97
	1719	877.2	4.04690E-001	4.04680E-001	0.00000E+000	...........	1468.97
	1720	877.71	4.04687E-001	4.04669E-001	0.00000E+000	...........	1468.97
	1721	878.22	4.04683E-001	4.04667E-001	0.00000E+000	...........	1468.88
	1722	878.73	4.04678E-001	4.04661E-001	0.00000E+000	...........	1468.88
	1723	879.24	4.04673E-001	4.04658E-001	0.00000E+000	...........	1468.88
	1724	879.75	4.04667E-001	4.04659E-001	0.00000E+000	...........	1468.88
	1725	880.26	4.04663E-001	4.04656E-001	0.00000E+000	...........	1468.88
	1726	880.77	4.04660E-001	4.04651E-001	0.00000E+000	...........	1468.88
	1727	881.28	4.04657E-001	4.04654E-001	0.00000E+000	...........	1468.88
	1728	881.79	4.04655E-001	4.04644E-001	0.00000E+000	...........	1468.88
	1729	882.3	4.04653E-001	4.04644E-001	0.00000E+000	...........	1468.70
	1730	882.81	4.04650E-001	4.04644E-001	0.00000E+000	...........	1468.70
	1731	883.32	4.04647E-001	4.04642E-001	0.00000E+000	...........	1468.61
	1732	883.83	4.04645E-001	4.04638E-001	0.00000E+000	...........	1468.61
	1733	884.34	4.04643E-001	4.04650E-001	0.00000E+000	...........	1468.61
	1734	884.85	4.04642E-001	4.04637E-001	0.00000E+000	...........	1468.72
	1735	885.36	4.04642E-001	4.04634E-001	0.00000E+000	...........	1468.88
	1736	885.87	4.04641E-001	4.04628E-001	0.00000E+000	...........	1468.88
	1737	886.38	4.04639E-001	4.04626E-001	0.00000E+000	...........	1468.88
	1738	886.89	4.04635E-001	4.04621E-001	0.00000E+000	...........	1468.88
	1739	887.4	4.04630E-001	4.04622E-001	0.00000E+000	...........	1468.88
	1740	887.91	4.04626E-001	4.04618E-001	0.00000E+000	...........	1468.79
	1741	888.42	4.04623E-001	4.04614E-001	0.00000E+000	...........	1468.79
	1742	888.93	4.04620E-001	4.04601E-001	0.00000E+000	...........	1468.88
	1743	889.44	4.04617E-001	4.04603E-001	0.00000E+000	...........	1468.88
	1744	889.95	4.04612E-001	4.04600E-001	0.00000E+000	...........	1468.88
	1745	890.46	4.04607E-001	4.04593E-001	0.00000E+000	...........	1468.88
	1746	890.97	4.04603E-001	4.04598E-001	0.00000E+000	...........	1468.88
	1747	891.48	4.04600E-001	4.04605E-001	0.00000E+000	...........	1468.88
	1748	891.99	4.04598E-001	4.04596E-001	0.00000E+000	...........	1468.97
	1749	892.5	4.04599E-001	4.04596E-001	0.00000E+000	...........	1468.97
	1750	893.01	4.04599E-001	4.04589E-001	0.00000E+000	...........	1468.97
	1751	893.52	4.04597E-001	4.04596E-001	0.00000E+000	...........	1468.97
	1752	894.03	4.04595E-001	4.04586E-001	0.00000E+000	...........	1468.88
	1753	894.54	4.04593E-001	4.04584E-001	0.00000E+000	...........	1468.88
	1754	895.05	4.04591E-001	4.04574E-001	0.00000E+000	...........	1468.97
	1755	895.56	4.04586E-001	4.04531E-001	0.00000E+000	...........	1468.97
	1756	896.07	4.04578E-001	4.04545E-001	0.00000E+000	...........	1468.88
	1757	896.58	4.04565E-001	4.04547E-001	0.00000E+000	...........	1468.88
	1758	897.09	4.04554E-001	4.04554E-001	0.00000E+000	...........	1468.88
	1759	897.6	4.04548E-001	4.04556E-001	0.00000E+000	...........	1468.88
	1760	898.11	4.04548E-001	4.04548E-001	0.00000E+000	...........	1468.88
	1761	898.62	4.04550E-001	4.04565E-001	0.00000E+000	...........	1468.88
	1762	899.13	4.04553E-001	4.04552E-001	0.00000E+000	...........	1468.97
	1763	899.64	4.04554E-001	4.04551E-001	0.00000E+000	...........	1468.97
	1764	900.15	4.04555E-001	4.04546E-001	0.00000E+000	...........	1468.88
	1765	900.66	4.04553E-001	4.04538E-001	0.00000E+000	...........	1468.88
	1766	901.17	4.04550E-001	4.04544E-001	0.00000E+000	...........	1468.88
	1767	901.68	4.04546E-001	4.04536E-001	0.00000E+000	...........	1468.88
	1768	902.19	4.04543E-001	4.04534E-001	0.00000E+000	...........	1468.88
	1769	902.7	4.04540E-001	4.04528E-001	0.00000E+000	...........	1468.88
	1770	903.21	4.04537E-001	4.04519E-001	0.00000E+000	...........	1468.88
	1771	903.72	4.04532E-001	4.04509E-001	0.00000E+000	...........	1468.88
	1772	904.23	4.04527E-001	4.04512E-001	0.00000E+000	...........	1468.88
	1773	904.74	4.04520E-001	4.04495E-001	0.00000E+000	...........	1468.88
	1774	905.25	4.04514E-001	4.04498E-001	0.00000E+000	...........	1468.88
	1775	905.76	4.04507E-001	4.04503E-001	0.00000E+000	...........	1468.88
	1776	906.27	4.04503E-001	4.04497E-001	0.00000E+000	...........	1468.88
	1777	906.78	4.04500E-001	4.04493E-001	0.00000E+000	...........	1468.88
	1778	907.29	4.04498E-001	4.04485E-001	0.00000E+000	...........	1468.88
	1779	907.8	4.04496E-001	4.04483E-001	0.00000E+000	...........	1468.88
	1780	908.31	4.04492E-001	4.04475E-001	0.00000E+000	...........	1468.52
	1781	908.82	4.04487E-001	4.04469E-001	0.00000E+000	...........	1468.52
	1782	909.33	4.04482E-001	4.04478E-001	0.00000E+000	...........	1468.52
	1783	909.84	4.04478E-001	4.04474E-001	0.00000E+000	...........	1468.60
	1784	910.35	4.04475E-001	4.04466E-001	0.00000E+000	...........	1468.79
	1785	910.86	4.04473E-001	4.04454E-001	0.00000E+000	...........	1468.83
	1786	911.37	4.04470E-001	4.04467E-001	0.00000E+000	...........	1468.88
	1787	911.88	4.04467E-001	4.04469E-001	0.00000E+000	...........	1468.88
	1788	912.39	4.04464E-001	4.04464E-001	0.00000E+000	...........	1468.88
	1789	912.9	4.04464E-001	4.04469E-001	0.00000E+000	...........	1468.88
	1790	913.41	4.04465E-001	4.04452E-001	0.00000E+000	...........	1468.88
	1791	913.92	4.04464E-001	4.04443E-001	0.00000E+000	...........	1468.88
	1792	914.43	4.04461E-001	4.04453E-001	0.00000E+000	...........	1468.88
	1793	914.94	4.04456E-001	4.04439E-001	0.00000E+000	...........	1468.88
	1794	915.45	4.04451E-001	4.04440E-001	0.00000E+000	...........	1468.88
	1795	915.96	4.04447E-001	4.04441E-001	0.00000E+000	...........	1468.88
	1796	916.47	4.04444E-001	4.04438E-001	0.00000E+000	...........	1468.88
	1797	916.98	4.04441E-001	4.04431E-001	0.00000E+000	...........	1468.88
	1798	917.49	4.04439E-001	4.04424E-001	0.00000E+000	...........	1468.88
	1799	918	4.04436E-001	4.04419E-001	0.00000E+000	...........	1468.88
	1800	918.51	4.04431E-001	4.04406E-001	0.00000E+000	...........	1468.88
	1801	919.02	4.04425E-001	4.04407E-001	0.00000E+000	...........	1468.88
	1802	919.53	4.04418E-001	4.04412E-001	0.00000E+000	...........	1468.88
	1803	920.04	4.04413E-001	4.04396E-001	0.00000E+000	...........	1468.88
	1804	920.55	4.04409E-001	4.04403E-001	0.00000E+000	...........	1468.88
	1805	921.06	4.04406E-001	4.04385E-001	0.00000E+000	...........	1468.88
	1806	921.57	4.04401E-001	4.04381E-001	0.00000E+000	...........	1468.88
	1807	922.08	4.04396E-001	4.04383E-001	0.00000E+000	...........	1468.88
	1808	922.59	4.04390E-001	4.04370E-001	0.00000E+000	...........	1468.88
	1809	923.1	4.04384E-001	4.04368E-001	0.00000E+000	...........	1468.88
	1810	923.61	4.04379E-001	4.04367E-001	0.00000E+000	...........	1468.88
	1811	924.12	4.04374E-001	4.04364E-001	0.00000E+000	...........	1468.88
	1812	924.63	4.04370E-001	4.04354E-001	0.00000E+000	...........	1468.88
	1813	925.14	4.04366E-001	4.04349E-001	0.00000E+000	...........	1468.88
	1814	925.65	4.04361E-001	4.04335E-001	0.00000E+000	...........	1468.88
	1815	926.16	4.04355E-001	4.04342E-001	0.00000E+000	...........	1468.88
	1816	926.67	4.04348E-001	4.04326E-001	0.00000E+000	...........	1468.88
	1817	927.18	4.04342E-001	4.04326E-001	0.00000E+000	...........	1468.88
	1818	927.69	4.04336E-001	4.04325E-001	0.00000E+000	...........	1468.88
	1819	928.2	4.04331E-001	4.04312E-001	0.00000E+000	...........	1468.88
	1820	928.71	4.04326E-001	4.04311E-001	0.00000E+000	...........	1468.88
	1821	929.22	4.04321E-001	4.04292E-001	0.00000E+000	...........	1468.88
	1822	929.73	4.04315E-001	4.04288E-001	0.00000E+000	...........	1468.88
	1823	930.24	4.04307E-001	4.04287E-001	0.00000E+000	...........	1468.88
	1824	930.75	4.04298E-001	4.04277E-001	0.00000E+000	...........	1468.88
	1825	931.26	4.04291E-001	4.04276E-001	0.00000E+000	...........	1468.88
	1826	931.77	4.04285E-001	4.04260E-001	0.00000E+000	...........	1468.88
	1827	932.28	4.04279E-001	4.04268E-001	0.00000E+000	...........	1468.88
	1828	932.79	4.04273E-001	4.04253E-001	0.00000E+000	...........	1468.88
	1829	933.3	4.04268E-001	4.04253E-001	0.00000E+000	...........	1468.88
	1830	933.81	4.04262E-001	4.04245E-001	0.00000E+000	...........	1468.87
	1831	934.32	4.04257E-001	4.04236E-001	0.00000E+000	...........	1468.43
	1832	934.83	4.04251E-001	4.04230E-001	0.00000E+000	...........	1468.44
	1833	935.34	4.04245E-001	4.04215E-001	0.00000E+000	...........	1468.52
	1834	935.85	4.04237E-001	4.04218E-001	0.00000E+000	...........	1468.66
	1835	936.36	4.04229E-001	4.04211E-001	0.00000E+000	...........	1468.88
	1836	936.87	4.04222E-001	4.04201E-001	0.00000E+000	...........	1468.88
	1837	937.38	4.04216E-001	4.04215E-001	0.00000E+000	...........	1468.88
	1838	937.89	4.04212E-001	4.04204E-001	0.00000E+000	...........	1468.88
	1839	938.4	4.04209E-001	4.04187E-001	0.00000E+000	...........	1468.88
	1840	938.91	4.04205E-001	4.04183E-001	0.00000E+000	...........	1468.79
	1841	939.42	4.04200E-001	4.04170E-001	0.00000E+000	...........	1468.79
	1842	939.93	4.04192E-001	4.04178E-001	0.00000E+000	...........	1468.88
	1843	940.44	4.04184E-001	4.04183E-001	0.00000E+000	...........	1468.88
	1844	940.95	4.04179E-001	4.04158E-001	0.00000E+000	...........	1468.88
	1845	941.46	4.04176E-001	4.04160E-001	0.00000E+000	...........	1468.88
	1846	941.97	4.04172E-001	4.04152E-001	0.00000E+000	...........	1468.88
	1847	942.48	4.04166E-001	4.04141E-001	0.00000E+000	...........	1468.88
	1848	942.99	4.04159E-001	4.04141E-001	0.00000E+000	...........	1468.88
	1849	943.5	4.04152E-001	4.04137E-001	0.00000E+000	...........	1468.88
	1850	944.01	4.04146E-001	4.04129E-001	0.00000E+000	...........	1468.88
	1851	944.52	4.04141E-001	4.04129E-001	0.00000E+000	...........	1468.88
	1852	945.03	4.04136E-001	4.04120E-001	0.00000E+000	...........	1468.88
	1853	945.54	4.04131E-001	4.04119E-001	0.00000E+000	...........	1468.88
	1854	946.05	4.04127E-001	4.04123E-001	0.00000E+000	...........	1468.88
	1855	946.56	4.04124E-001	4.04120E-001	0.00000E+000	...........	1468.88
	1856	947.07	4.04122E-001	4.04117E-001	0.00000E+000	...........	1468.88
	1857	947.58	4.04121E-001	4.04124E-001	0.00000E+000	...........	1468.88
	1858	948.09	4.04120E-001	4.04108E-001	0.00000E+000	...........	1468.88
	1859	948.6	4.04119E-001	4.04101E-001	0.00000E+000	...........	1468.88
	1860	949.11	4.04116E-001	4.04107E-001	0.00000E+000	...........	1468.88
	1861	949.62	4.04111E-001	4.04101E-001	0.00000E+000	...........	1468.88
	1862	950.13	4.04107E-001	4.04098E-001	0.00000E+000	...........	1468.88
	1863	950.64	4.04104E-001	4.04090E-001	0.00000E+000	...........	1468.88
	1864	951.15	4.04101E-001	4.04090E-001	0.00000E+000	...........	1468.97
	1865	951.66	4.04097E-001	4.04085E-001	0.00000E+000	...........	1468.97
	1866	952.17	4.04093E-001	4.04094E-001	0.00000E+000	...........	1468.88
	1867	952.68	4.04090E-001	4.04085E-001	0.00000E+000	...........	1468.88
	1868	953.19	4.04089E-001	4.04073E-001	0.00000E+000	...........	1468.88
	1869	953.7	4.04086E-001	4.04068E-001	0.00000E+000	...........	1468.88
	1870	954.21	4.04082E-001	4.04066E-001	0.00000E+000	...........	1468.97
	1871	954.72	4.04076E-001	4.04059E-001	0.00000E+000	...........	1468.97
	1872	955.23	4.04071E-001	4.04055E-001	0.00000E+000	...........	1468.88
	1873	955.74	4.04065E-001	4.04061E-001	0.00000E+000	...........	1468.88
	1874	956.25	4.04061E-001	4.04044E-001	0.00000E+000	...........	1468.88
	1875	956.76	4.04058E-001	4.04045E-001	0.00000E+000	...........	1468.88
	1876	957.27	4.04054E-001	4.04039E-001	0.00000E+000	...........	1468.88
	1877	957.78	4.04049E-001	4.04040E-001	0.00000E+000	...........	1468.88
	1878	958.29	4.04045E-001	4.04024E-001	0.00000E+000	...........	1468.88
	1879	958.8	4.04040E-001	4.04028E-001	0.00000E+000	...........	1468.88
	1880	959.31	4.04036E-001	4.04028E-001	0.00000E+000	...........	1468.43
	1881	959.82	4.04031E-001	4.04020E-001	0.00000E+000	...........	1468.43
	1882	960.33	4.04028E-001	4.04012E-001	0.00000E+000	...........	1468.43
	1883	960.84	4.04024E-001	4.04003E-001	0.00000E+000	...........	1468.54
	1884	961.35	4.04019E-001	4.04006E-001	0.00000E+000	...........	1468.79
	1885	961.86	4.04013E-001	4.03997E-001	0.00000E+000	...........	1468.83
	1886	962.37	4.04008E-001	4.03994E-001	0.00000E+000	...........	1468.88
	1887	962.88	4.04003E-001	4.03991E-001	0.00000E+000	...........	1468.94
	1888	963.39	4.03999E-001	4.03974E-001	0.00000E+000	...........	1468.97
	1889	963.9	4.03994E-001	4.03979E-001	0.00000E+000	...........	1468.89
	1890	964.41	4.03988E-001	4.03976E-001	0.00000E+000	...........	1468.88
	1891	964.92	4.03982E-001	4.03971E-001	0.00000E+000	...........	1468.88
	1892	965.43	4.03978E-001	4.03962E-001	0.00000E+000	...........	1468.88
	1893	965.94	4.03974E-001	4.03961E-001	0.00000E+000	...........	1468.88
	1894	966.45	4.03970E-001	4.03958E-001	0.00000E+000	...........	1468.88
	1895	966.96	4.03965E-001	4.03952E-001	0.00000E+000	...........	1468.88
	1896	967.47	4.03961E-001	4.03946E-001	0.00000E+000	...........	1468.88
	1897	967.98	4.03957E-001	4.03943E-001	0.00000E+000	...........	1468.97
	1898	968.49	4.03952E-001	4.03948E-001	0.00000E+000	...........	1468.97
	1899	969	4.03949E-001	4.03935E-001	0.00000E+000	...........	1468.97
	1900	969.51	4.03945E-001	4.03919E-001	0.00000E+000	...........	1468.97
	1901	970.02	4.03940E-001	4.03925E-001	0.00000E+000	...........	1468.88
	1902	970.53	4.03934E-001	4.03903E-001	0.00000E+000	...........	1468.88
	1903	971.04	4.03926E-001	4.03904E-001	0.00000E+000	...........	1468.88
	1904	971.55	4.03918E-001	4.03896E-001	0.00000E+000	...........	1468.88
	1905	972.06	4.03910E-001	4.03889E-001	0.00000E+000	...........	1468.88
	1906	972.57	4.03903E-001	4.03879E-001	0.00000E+000	...........	1468.88
	1907	973.08	4.03896E-001	4.03882E-001	0.00000E+000	...........	1468.88
	1908	973.59	4.03890E-001	4.03875E-001	0.00000E+000	...........	1468.88
	1909	974.1	4.03884E-001	4.03869E-001	0.00000E+000	...........	1468.88
	1910	974.61	4.03880E-001	4.03865E-001	0.00000E+000	...........	1468.88
	1911	975.12	4.03875E-001	4.03866E-001	0.00000E+000	...........	1468.88
	1912	975.63	4.03871E-001	4.03860E-001	0.00000E+000	...........	1468.88
	1913	976.14	4.03867E-001	4.03860E-001	0.00000E+000	...........	1468.88
	1914	976.65	4.03864E-001	4.03844E-001	0.00000E+000	...........	1468.88
	1915	977.16	4.03860E-001	4.03849E-001	0.00000E+000	...........	1468.88
	1916	977.67	4.03856E-001	4.03836E-001	0.00000E+000	...........	1468.88
	1917	978.18	4.03850E-001	4.03843E-001	0.00000E+000	...........	1468.88
	1918	978.69	4.03846E-001	4.03848E-001	0.00000E+000	...........	1468.88
	1919	979.2	4.03843E-001	4.03836E-001	0.00000E+000	...........	1468.97
	1920	979.71	4.03842E-001	4.03832E-001	0.00000E+000	...........	1468.97
	1921	980.22	4.03841E-001	4.03822E-001	0.00000E+000	...........	1468.88
	1922	980.73	4.03837E-001	4.03811E-001	0.00000E+000	...........	1468.88
	1923	981.24	4.03831E-001	4.03822E-001	0.00000E+000	...........	1468.88
	1924	981.75	4.03824E-001	4.03818E-001	0.00000E+000	...........	1468.88
	1925	982.26	4.03820E-001	4.03801E-001	0.00000E+000	...........	1468.88
	1926	982.77	4.03816E-001	4.03799E-001	0.00000E+000	...........	1468.88
	1927	983.28	4.03812E-001	4.03790E-001	0.00000E+000	...........	1468.88
	1928	983.79	4.03806E-001	4.03795E-001	0.00000E+000	...........	1468.88
	1929	984.3	4.03800E-001	4.03779E-001	0.00000E+000	...........	1468.88
	1930	984.81	4.03795E-001	4.03788E-001	0.00000E+000	...........	1468.87
	1931	985.32	4.03790E-001	4.03791E-001	0.00000E+000	...........	1468.43
	1932	985.83	4.03788E-001	4.03778E-001	0.00000E+000	...........	1468.44
	1933	986.34	4.03786E-001	4.03785E-001	0.00000E+000	...........	1468.52
	1934	986.85	4.03785E-001	4.03772E-001	0.00000E+000	...........	1468.66
	1935	987.36	4.03783E-001	4.03772E-001	0.00000E+000	...........	1468.88
	1936	987.87	4.03780E-001	4.03779E-001	0.00000E+000	...........	1468.88
	1937	988.38	4.03777E-001	4.03770E-001	0.00000E+000	...........	1468.88
	1938	988.89	4.03775E-001	4.03761E-001	0.00000E+000	...........	1468.88
	1939	989.4	4.03773E-001	4.03765E-001	0.00000E+000	...........	1468.88
	1940	989.91	4.03770E-001	4.03769E-001	0.00000E+000	...........	1468.88
	1941	990.42	4.03767E-001	4.03764E-001	0.00000E+000	...........	1468.88
	1942	990.93	4.03766E-001	4.03757E-001	0.00000E+000	...........	1468.88
	1943	991.44	4.03765E-001	4.03756E-001	0.00000E+000	...........	1468.88
	1944	991.95	4.03763E-001	4.03760E-001	0.00000E+000	...........	1468.97
	1945	992.46	4.03760E-001	4.03759E-001	0.00000E+000	...........	1468.97
	1946	992.97	4.03759E-001	4.03757E-001	0.00000E+000	...........	1468.88
	1947	993.48	4.03758E-001	4.03750E-001	0.00000E+000	...........	1468.88
	1948	993.99	4.03757E-001	4.03748E-001	0.00000E+000	...........	1468.97
	1949	994.5	4.03755E-001	4.03741E-001	0.00000E+000	...........	1468.97
	1950	995.01	4.03751E-001	4.03733E-001	0.00000E+000	...........	1468.88
	1951	995.52	4.03747E-001	4.03735E-001	0.00000E+000	...........	1468.88
	1952	996.03	4.03742E-001	4.03738E-001	0.00000E+000	...........	1468.97
	1953	996.54	4.03738E-001	4.03730E-001	0.00000E+000	...........	1468.97
	1954	997.05	4.03736E-001	4.03715E-001	0.00000E+000	...........	1468.88
	1955	997.56	4.03732E-001	4.03717E-001	0.00000E+000	...........	1468.88
	1956	998.07	4.03727E-001	4.03699E-001	0.00000E+000	...........	1468.97
	1957	998.58	4.03720E-001	4.03709E-001	0.00000E+000	...........	1468.97
	1958	999.09	4.03714E-001	4.03697E-001	0.00000E+000	...........	1468.88
	1959	999.6	4.03708E-001	4.03670E-001	0.00000E+000	...........	1468.88
	1960	1000.11	4.03700E-001	4.03666E-001	0.00000E+000	...........	1468.88
	1961	1000.62	4.03691E-001	4.03669E-001	0.00000E+000	...........	1468.88
	1962	1001.13	4.03680E-001	4.03641E-001	0.00000E+000	...........	1468.97
	1963	1001.64	4.03670E-001	4.03641E-001	0.00000E+000	...........	1468.97
	1964	1002.15	4.03660E-001	4.03635E-001	0.00000E+000	...........	1468.97
	1965	1002.66	4.03650E-001	4.03623E-001	0.00000E+000	...........	1468.97
	1966	1003.17	4.03641E-001	4.03621E-001	0.00000E+000	...........	1468.88
	1967	1003.68	4.03634E-001	4.03618E-001	0.00000E+000	...........	1468.88
	1968	1004.19	4.03627E-001	4.03621E-001	0.00000E+000	...........	1468.97
	1969	1004.7	4.03623E-001	4.03621E-001	0.00000E+000	...........	1468.97
	1970	1005.21	4.03620E-001	4.03604E-001	0.00000E+000	...........	1468.88
	1971	1005.72	4.03619E-001	4.03617E-001	0.00000E+000	...........	1468.88
	1972	1006.23	4.03616E-001	4.03608E-001	0.00000E+000	...........	1468.88
	1973	1006.74	4.03614E-001	4.03600E-001	0.00000E+000	...........	1468.88
	1974	1007.25	4.03611E-001	4.03612E-001	0.00000E+000	...........	1468.97
	1975	1007.76	4.03608E-001	4.03598E-001	0.00000E+000	...........	1468.97
	1976	1008.27	4.03606E-001	4.03581E-001	0.00000E+000	...........	1468.88
	1977	1008.78	4.03602E-001	4.03573E-001	0.00000E+000	...........	1468.88
	1978	1009.29	4.03595E-001	4.03577E-001	0.00000E+000	...........	1468.88
	1979	1009.8	4.03587E-001	4.03564E-001	0.00000E+000	...........	1468.88
	1980	1010.31	4.03579E-001	4.03569E-001	0.00000E+000	...........	1468.88
	1981	1010.82	4.03574E-001	4.03574E-001	0.00000E+000	...........	1468.83
	1982	1011.33	4.03571E-001	4.03569E-001	0.00000E+000	...........	1468.43
	1983	1011.84	4.03570E-001	4.03559E-001	0.00000E+000	...........	1468.54
	1984	1012.35	4.03569E-001	4.03557E-001	0.00000E+000	...........	1468.79
	1985	1012.86	4.03566E-001	4.03549E-001	0.00000E+000	...........	1468.83
	1986	1013.37	4.03562E-001	4.03543E-001	0.00000E+000	...........	1468.88
	1987	1013.88	4.03556E-001	4.03536E-001	0.00000E+000	...........	1468.88
	1988	1014.39	4.03550E-001	4.03533E-001	0.00000E+000	...........	1468.88
	1989	1014.9	4.03544E-001	4.03527E-001	0.00000E+000	...........	1468.88
	1990	1015.41	4.03538E-001	4.03529E-001	0.00000E+000	...........	1468.88
	1991	1015.92	4.03533E-001	4.03520E-001	0.00000E+000	...........	1468.88
	1992	1016.43	4.03529E-001	4.03510E-001	0.00000E+000	...........	1468.88
	1993	1016.94	4.03525E-001	4.03522E-001	0.00000E+000	...........	1468.88
	1994	1017.45	4.03521E-001	4.03519E-001	0.00000E+000	...........	1468.88
	1995	1017.96	4.03519E-001	4.03515E-001	0.00000E+000	...........	1468.88
	1996	1018.47	4.03518E-001	4.03507E-001	0.00000E+000	...........	1468.88
	1997	1018.98	4.03516E-001	4.03514E-001	0.00000E+000	...........	1468.88
	1998	1019.49	4.03514E-001	4.03503E-001	0.00000E+000	...........	1468.88
	1999	1020	4.03512E-001	4.03506E-001	0.00000E+000	...........	1468.88
	2000	1020.51	4.03509E-001	4.03506E-001	0.00000E+000	...........	1468.88
	2001	1021.02	4.03508E-001	4.03513E-001	0.00000E+000	...........	1468.97
	2002	1021.53	4.03507E-001	4.03512E-001	0.00000E+000	...........	1468.97
	2003	1022.04	4.03508E-001	4.03505E-001	0.00000E+000	...........	1468.88
	2004	1022.55	4.03509E-001	4.03493E-001	0.00000E+000	...........	1468.88
	2005	1023.06	4.03507E-001	4.03489E-001	0.00000E+000	...........	1468.97
	2006	1023.57	4.03503E-001	4.03487E-001	0.00000E+000	...........	1468.97
	2007	1024.08	4.03497E-001	4.03473E-001	0.00000E+000	...........	1468.97
	2008	1024.59	4.03490E-001	4.03475E-001	0.00000E+000	...........	1468.97
	2009	1025.1	4.03484E-001	4.03480E-001	0.00000E+000	...........	1468.88
	2010	1025.61	4.03480E-001	4.03480E-001	0.00000E+000	...........	1468.88
	2011	1026.12	4.03478E-001	4.03469E-001	0.00000E+000	...........	1468.88
	2012	1026.63	4.03477E-001	4.03469E-001	0.00000E+000	...........	1468.88
	2013	1027.14	4.03475E-001	4.03467E-001	0.00000E+000	...........	1468.88
	2014	1027.65	4.03473E-001	4.03461E-001	0.00000E+000	...........	1468.88
	2015	1028.16	4.03469E-001	4.03459E-001	0.00000E+000	...........	1468.88
	2016	1028.67	4.03466E-001	4.03447E-001	0.00000E+000	...........	1468.88
	2017	1029.18	4.03461E-001	4.03433E-001	0.00000E+000	...........	1468.88
	2018	1029.69	4.03455E-001	4.03429E-001	0.00000E+000	...........	1468.88
	2019	1030.2	4.03447E-001	4.03422E-001	0.00000E+000	...........	1468.88
	2020	1030.71	4.03438E-001	4.03422E-001	0.00000E+000	...........	1468.88
	2021	1031.22	4.03431E-001	4.03416E-001	0.00000E+000	...........	1468.88
	2022	1031.73	4.03425E-001	4.03410E-001	0.00000E+000	...........	1468.88
	2023	1032.24	4.03420E-001	4.03407E-001	0.00000E+000	...........	1468.88
	2024	1032.75	4.03416E-001	4.03400E-001	0.00000E+000	...........	1468.88
	2025	1033.26	4.03411E-001	4.03398E-001	0.00000E+000	...........	1468.97
	2026	1033.77	4.03406E-001	4.03373E-001	0.00000E+000	...........	1468.97
	2027	1034.28	4.03400E-001	4.03376E-001	0.00000E+000	...........	1468.88
	2028	1034.79	4.03391E-001	4.03357E-001	0.00000E+000	...........	1468.88
	2029	1035.3	4.03382E-001	4.03352E-001	0.00000E+000	...........	1468.88
	2030	1035.81	4.03372E-001	4.03345E-001	0.00000E+000	...........	1468.88
	2031	1036.32	4.03362E-001	4.03338E-001	0.00000E+000	...........	1468.88
	2032	1036.83	4.03353E-001	4.03343E-001	0.00000E+000	...........	1468.80
	2033	1037.34	4.03347E-001	4.03325E-001	0.00000E+000	...........	1468.52
	2034	1037.85	4.03342E-001	4.03339E-001	0.00000E+000	...........	1468.63
	2035	1038.36	4.03338E-001	4.03330E-001	0.00000E+000	...........	1468.79
	2036	1038.87	4.03335E-001	4.03324E-001	0.00000E+000	...........	1468.84
	2037	1039.38	4.03332E-001	4.03326E-001	0.00000E+000	...........	1468.88
	2038	1039.89	4.03330E-001	4.03312E-001	0.00000E+000	...........	1468.88
	2039	1040.4	4.03326E-001	4.03312E-001	0.00000E+000	...........	1468.88
	2040	1040.91	4.03322E-001	4.03317E-001	0.00000E+000	...........	1468.88
	2041	1041.42	4.03318E-001	4.03311E-001	0.00000E+000	...........	1468.88
	2042	1041.93	4.03315E-001	4.03314E-001	0.00000E+000	...........	1468.79
	2043	1042.44	4.03314E-001	4.03297E-001	0.00000E+000	...........	1468.79
	2044	1042.95	4.03311E-001	4.03292E-001	0.00000E+000	...........	1468.88
	2045	1043.46	4.03307E-001	4.03292E-001	0.00000E+000	...........	1468.88
	2046	1043.97	4.03302E-001	4.03294E-001	0.00000E+000	...........	1468.97
	2047	1044.48	4.03297E-001	4.03288E-001	0.00000E+000	...........	1468.97
	2048	1044.99	4.03293E-001	4.03285E-001	0.00000E+000	...........	1468.88
	2049	1045.5	4.03291E-001	4.03281E-001	0.00000E+000	...........	1468.88
	2050	1046.01	4.03288E-001	4.03278E-001	0.00000E+000	...........	1468.88
	2051	1046.52	4.03285E-001	4.03270E-001	0.00000E+000	...........	1468.88
	2052	1047.03	4.03281E-001	4.03275E-001	0.00000E+000	...........	1468.97
	2053	1047.54	4.03278E-001	4.03278E-001	0.00000E+000	...........	1468.97
	2054	1048.05	4.03276E-001	4.03292E-001	0.00000E+000	...........	1468.97
	2055	1048.56	4.03277E-001	4.03297E-001	0.00000E+000	...........	1468.97
	2056	1049.07	4.03282E-001	4.03293E-001	0.00000E+000	...........	1468.88
	2057	1049.58	4.03287E-001	4.03289E-001	0.00000E+000	...........	1468.88
	2058	1050.09	4.03291E-001	4.03300E-001	0.00000E+000	...........	1468.88
	2059	1050.6	4.03293E-001	4.03308E-001	0.00000E+000	...........	1468.88
	2060	1051.11	4.03296E-001	4.03300E-001	0.00000E+000	...........	1468.97
	2061	1051.62	4.03299E-001	4.03307E-001	0.00000E+000	...........	1468.97
	2062	1052.13	4.03301E-001	4.03298E-001	0.00000E+000	...........	1468.88
	2063	1052.64	4.03303E-001	4.03299E-001	0.00000E+000	...........	1468.88
	2064	1053.15	4.03302E-001	4.03311E-001	0.00000E+000	...........	1468.88
	2065	1053.66	4.03302E-001	4.03297E-001	0.00000E+000	...........	1468.88
	2066	1054.17	4.03302E-001	4.03299E-001	0.00000E+000	...........	1468.88
	2067	1054.68	4.03302E-001	4.03300E-001	0.00000E+000	...........	1468.88
	2068	1055.19	4.03301E-001	4.03300E-001	0.00000E+000	...........	1468.97
	2069	1055.7	4.03300E-001	4.03300E-001	0.00000E+000	...........	1468.97
	2070	1056.21	4.03300E-001	4.03304E-001	0.00000E+000	...........	1468.88
	2071	1056.72	4.03300E-001	4.03307E-001	0.00000E+000	...........	1468.88
	2072	1057.23	4.03301E-001	4.03299E-001	0.00000E+000	...........	1468.88
	2073	1057.74	4.03303E-001	4.03300E-001	0.00000E+000	...........	1468.88
	2074	1058.25	4.03303E-001	4.03302E-001	0.00000E+000	...........	1468.88
	2075	1058.76	4.03302E-001	4.03304E-001	0.00000E+000	...........	1468.88
	2076	1059.27	4.03302E-001	4.03301E-001	0.00000E+000	...........	1468.97
	2077	1059.78	4.03302E-001	4.03306E-001	0.00000E+000	...........	1468.97
	2078	1060.29	4.03302E-001	4.03300E-001	0.00000E+000	...........	1468.88
	2079	1060.8	4.03303E-001	4.03306E-001	0.00000E+000	...........	1468.88
	2080	1061.31	4.03303E-001	4.03309E-001	0.00000E+000	...........	1468.97
	2081	1061.82	4.03304E-001	4.03313E-001	0.00000E+000	...........	1468.92
	2082	1062.33	4.03306E-001	4.03315E-001	0.00000E+000	...........	1468.52
	2083	1062.84	4.03309E-001	4.03297E-001	0.00000E+000	...........	1468.60
	2084	1063.35	4.03310E-001	4.03298E-001	0.00000E+000	...........	1468.79
	2085	1063.86	4.03308E-001	4.03310E-001	0.00000E+000	...........	1468.83
	2086	1064.37	4.03305E-001	4.03292E-001	0.00000E+000	...........	1468.88
	2087	1064.88	4.03303E-001	4.03306E-001	0.00000E+000	...........	1468.94
	2088	1065.39	4.03302E-001	4.03306E-001	0.00000E+000	...........	1468.97
	2089	1065.9	4.03301E-001	4.03293E-001	0.00000E+000	...........	1468.81
	2090	1066.41	4.03301E-001	4.03289E-001	0.00000E+000	...........	1468.79
	2091	1066.92	4.03299E-001	4.03291E-001	0.00000E+000	...........	1468.97
	2092	1067.43	4.03296E-001	4.03289E-001	0.00000E+000	...........	1468.97
	2093	1067.94	4.03293E-001	4.03299E-001	0.00000E+000	...........	1468.88
	2094	1068.45	4.03292E-001	4.03296E-001	0.00000E+000	...........	1468.88
	2095	1068.96	4.03293E-001	4.03298E-001	0.00000E+000	...........	1468.97
	2096	1069.47	4.03295E-001	4.03299E-001	0.00000E+000	...........	1468.97
	2097	1069.98	4.03296E-001	4.03295E-001	0.00000E+000	...........	1468.97
	2098	1070.49	4.03297E-001	4.03295E-001	0.00000E+000	...........	1468.97
	2099	1071	4.03297E-001	4.03280E-001	0.00000E+000	...........	1468.97
	2100	1071.51	4.03295E-001	4.03300E-001	0.00000E+000	...........	1468.97
	2101	1072.02	4.03293E-001	4.03291E-001	0.00000E+000	...........	1468.88
	2102	1072.53	4.03292E-001	4.03303E-001	0.00000E+000	...........	1468.88
	2103	1073.04	4.03293E-001	4.03305E-001	0.00000E+000	...........	1468.97
	2104	1073.55	4.03296E-001	4.03292E-001	0.00000E+000	...........	1468.97
	2105	1074.06	4.03298E-001	4.03298E-001	0.00000E+000	...........	1468.88
	2106	1074.57	4.03299E-001	4.03310E-001	0.00000E+000	...........	1468.88
	2107	1075.08	4.03300E-001	4.03304E-001	0.00000E+000	...........	1468.88
	2108	1075.59	4.03301E-001	4.03313E-001	0.00000E+000	...........	1468.88
	2109	1076.1	4.03304E-001	4.03310E-001	0.00000E+000	...........	1468.97
	2110	1076.61	4.03307E-001	4.03287E-001	0.00000E+000	...........	1468.97
	2111	1077.12	4.03306E-001	4.03288E-001	0.00000E+000	...........	1468.97
	2112	1077.63	4.03302E-001	4.03293E-001	0.00000E+000	...........	1468.97
	2113	1078.14	4.03297E-001	4.03291E-001	0.00000E+000	...........	1468.88
	2114	1078.65	4.03293E-001	4.03300E-001	0.00000E+000	...........	1468.88
	2115	1079.16	4.03292E-001	4.03281E-001	0.00000E+000	...........	1468.88
	2116	1079.67	4.03292E-001	4.03280E-001	0.00000E+000	...........	1468.88
	2117	1080.18	4.03290E-001	4.03276E-001	0.00000E+000	...........	1468.88
	2118	1080.69	4.03286E-001	4.03282E-001	0.00000E+000	...........	1468.88
	2119	1081.2	4.03283E-001	4.03278E-001	0.00000E+000	...........	1468.97
	2120	1081.71	4.03280E-001	4.03277E-001	0.00000E+000	...........	1468.97
	2121	1082.22	4.03279E-001	4.03273E-001	0.00000E+000	...........	1468.97
	2122	1082.73	4.03278E-001	4.03275E-001	0.00000E+000	...........	1468.97
	2123	1083.24	4.03276E-001	4.03274E-001	0.00000E+000	...........	1468.88
	2124	1083.75	4.03275E-001	4.03280E-001	0.00000E+000	...........	1468.88
	2125	1084.26	4.03275E-001	4.03282E-001	0.00000E+000	...........	1468.97
	2126	1084.77	4.03276E-001	4.03285E-001	0.00000E+000	...........	1468.97
	2127	1085.28	4.03278E-001	4.03273E-001	0.00000E+000	...........	1468.88
	2128	1085.79	4.03280E-001	4.03269E-001	0.00000E+000	...........	1468.88
	2129	1086.3	4.03279E-001	4.03283E-001	0.00000E+000	...........	1468.88
	2130	1086.81	4.03277E-001	4.03284E-001	0.00000E+000	...........	1468.88
	2131	1087.32	4.03277E-001	4.03272E-001	0.00000E+000	...........	1468.97
	2132	1087.83	4.03278E-001	4.03266E-001	0.00000E+000	...........	1468.89
	2133	1088.34	4.03277E-001	4.03268E-001	0.00000E+000	...........	1468.61
	2134	1088.85	4.03274E-001	4.03266E-001	0.00000E+000	...........	1468.72
	2135	1089.36	4.03271E-001	4.03269E-001	0.00000E+000	...........	1468.88
	2136	1089.87	4.03269E-001	4.03272E-001	0.00000E+000	...........	1468.88
	2137	1090.38	4.03268E-001	4.03268E-001	0.00000E+000	...........	1468.88
	2138	1090.89	4.03269E-001	4.03277E-001	0.00000E+000	...........	1468.88
	2139	1091.4	4.03270E-001	4.03267E-001	0.00000E+000	...........	1468.88
	2140	1091.91	4.03271E-001	4.03264E-001	0.00000E+000	...........	1468.88
	2141	1092.42	4.03270E-001	4.03266E-001	0.00000E+000	...........	1468.88
	2142	1092.93	4.03269E-001	4.03265E-001	0.00000E+000	...........	1468.88
	2143	1093.44	4.03267E-001	4.03259E-001	0.00000E+000	...........	1468.88
	2144	1093.95	4.03265E-001	4.03268E-001	0.00000E+000	...........	1468.88
	2145	1094.46	4.03264E-001	4.03267E-001	0.00000E+000	...........	1468.88
	2146	1094.97	4.03264E-001	4.03267E-001	0.00000E+000	...........	1468.88
	2147	1095.48	4.03265E-001	4.03264E-001	0.00000E+000	...........	1468.88
	2148	1095.99	4.03266E-001	4.03271E-001	0.00000E+000	...........	1468.97
	2149	1096.5	4.03267E-001	4.03279E-001	0.00000E+000	...........	1468.97
	2150	1097.01	4.03268E-001	4.03263E-001	0.00000E+000	...........	1468.97
	2151	1097.52	4.03270E-001	4.03270E-001	0.00000E+000	...........	1468.97
	2152	1098.03	4.03270E-001	4.03274E-001	0.00000E+000	...........	1468.88
	2153	1098.54	4.03270E-001	4.03269E-001	0.00000E+000	...........	1468.88
	2154	1099.05	4.03270E-001	4.03267E-001	0.00000E+000	...........	1468.97
	2155	1099.56	4.03270E-001	4.03262E-001	0.00000E+000	...........	1468.97
	2156	1100.07	4.03269E-001	4.03272E-001	0.00000E+000	...........	1468.97
	2157	1100.58	4.03268E-001	4.03262E-001	0.00000E+000	...........	1468.97
	2158	1101.09	4.03267E-001	4.03269E-001	0.00000E+000	...........	1468.97
	2159	1101.6	4.03266E-001	4.03258E-001	0.00000E+000	...........	1468.97
	2160	1102.11	4.03265E-001	4.03256E-001	0.00000E+000	...........	1468.88
	2161	1102.62	4.03263E-001	4.03264E-001	0.00000E+000	...........	1468.88
	2162	1103.13	4.03262E-001	4.03266E-001	0.00000E+000	...........	1468.88
	2163	1103.64	4.03261E-001	4.03266E-001	0.00000E+000	...........	1468.88
	2164	1104.15	4.03262E-001	4.03255E-001	0.00000E+000	...........	1468.88
	2165	1104.66	4.03263E-001	4.03252E-001	0.00000E+000	...........	1468.88
	2166	1105.17	4.03261E-001	4.03249E-001	0.00000E+000	...........	1468.88
	2167	1105.68	4.03258E-001	4.03248E-001	0.00000E+000	...........	1468.88
	2168	1106.19	4.03254E-001	4.03254E-001	0.00000E+000	...........	1468.88
	2169	1106.7	4.03252E-001	4.03256E-001	0.00000E+000	...........	1468.88
	2170	1107.21	4.03251E-001	4.03252E-001	0.00000E+000	...........	1468.97
	2171	1107.72	4.03252E-001	4.03240E-001	0.00000E+000	...........	1468.97
	2172	1108.23	4.03252E-001	4.03258E-001	0.00000E+000	...........	1468.88
	2173	1108.74	4.03251E-001	4.03251E-001	0.00000E+000	...........	1468.88
	2174	1109.25	4.03250E-001	4.03249E-001	0.00000E+000	...........	1468.88
	2175	1109.76	4.03251E-001	4.03264E-001	0.00000E+000	...........	1468.88
	2176	1110.27	4.03252E-001	4.03255E-001	0.00000E+000	...........	1468.97
	2177	1110.78	4.03254E-001	4.03260E-001	0.00000E+000	...........	1468.97
	2178	1111.29	4.03256E-001	4.03246E-001	0.00000E+000	...........	1468.88
	2179	1111.8	4.03257E-001	4.03256E-001	0.00000E+000	...........	1468.88
	2180	1112.31	4.03256E-001	4.03260E-001	0.00000E+000	...........	1468.88
	2181	1112.82	4.03255E-001	4.03263E-001	0.00000E+000	...........	1468.88
	2182	1113.33	4.03256E-001	4.03262E-001	0.00000E+000	...........	1468.88
	2183	1113.84	4.03258E-001	4.03262E-001	0.00000E+000	...........	1468.85
	2184	1114.35	4.03260E-001	4.03264E-001	0.00000E+000	...........	1468.79
	2185	1114.86	4.03262E-001	4.03261E-001	0.00000E+000	...........	1468.83
	2186	1115.37	4.03262E-001	4.03260E-001	0.00000E+000	...........	1468.88
	2187	1115.88	4.03262E-001	4.03262E-001	0.00000E+000	...........	1468.88
	2188	1116.39	4.03262E-001	4.03271E-001	0.00000E+000	...........	1468.88
	2189	1116.9	4.03262E-001	4.03263E-001	0.00000E+000	...........	1468.88
	2190	1117.41	4.03264E-001	4.03272E-001	0.00000E+000	...........	1468.88
	2191	1117.92	4.03265E-001	4.03265E-001	0.00000E+000	...........	1468.88
	2192	1118.43	4.03266E-001	4.03258E-001	0.00000E+000	...........	1468.88
	2193	1118.94	4.03266E-001	4.03270E-001	0.00000E+000	...........	1468.88
	2194	1119.45	4.03265E-001	4.03261E-001	0.00000E+000	...........	1468.88
	2195	1119.96	4.03265E-001	4.03262E-001	0.00000E+000	...........	1468.97
	2196	1120.47	4.03264E-001	4.03259E-001	0.00000E+000	...........	1468.97
	2197	1120.98	4.03263E-001	4.03259E-001	0.00000E+000	...........	1468.88
	2198	1121.49	4.03262E-001	4.03260E-001	0.00000E+000	...........	1468.88
	2199	1122	4.03260E-001	4.03261E-001	0.00000E+000	...........	1468.97
	2200	1122.51	4.03260E-001	4.03258E-001	0.00000E+000	...........	1468.97
	2201	1123.02	4.03260E-001	4.03261E-001	0.00000E+000	...........	1468.88
	2202	1123.53	4.03260E-001	4.03270E-001	0.00000E+000	...........	1468.88
	2203	1124.04	4.03261E-001	4.03277E-001	0.00000E+000	...........	1468.97
	2204	1124.55	4.03264E-001	4.03273E-001	0.00000E+000	...........	1468.97
	2205	1125.06	4.03268E-001	4.03265E-001	0.00000E+000	...........	1468.88
	2206	1125.57	4.03271E-001	4.03268E-001	0.00000E+000	...........	1468.88
	2207	1126.08	4.03271E-001	4.03261E-001	0.00000E+000	...........	1468.88
	2208	1126.59	4.03269E-001	4.03264E-001	0.00000E+000	...........	1468.88
	2209	1127.1	4.03266E-001	4.03255E-001	0.00000E+000	...........	1468.88
	2210	1127.61	4.03264E-001	4.03263E-001	0.00000E+000	...........	1468.88
	2211	1128.12	4.03262E-001	4.03256E-001	0.00000E+000	...........	1468.88
	2212	1128.63	4.03260E-001	4.03257E-001	0.00000E+000	...........	1468.88
	2213	1129.14	4.03259E-001	4.03272E-001	0.00000E+000	...........	1468.88
	2214	1129.65	4.03260E-001	4.03277E-001	0.00000E+000	...........	1468.88
	2215	1130.16	4.03263E-001	4.03278E-001	0.00000E+000	...........	1468.88
	2216	1130.67	4.03268E-001	4.03279E-001	0.00000E+000	...........	1468.88
	2217	1131.18	4.03273E-001	4.03279E-001	0.00000E+000	...........	1468.88
	2218	1131.69	4.03277E-001	4.03276E-001	0.00000E+000	...........	1468.88
	2219	1132.2	4.03278E-001	4.03277E-001	0.00000E+000	...........	1468.88
	2220	1132.71	4.03278E-001	4.03287E-001	0.00000E+000	...........	1468.88
	2221	1133.22	4.03279E-001	4.03290E-001	0.00000E+000	...........	1468.88
	2222	1133.73	4.03281E-001	4.03286E-001	0.00000E+000	...........	1468.88
	2223	1134.24	4.03284E-001	4.03287E-001	0.00000E+000	...........	1468.88
	2224	1134.75	4.03286E-001	4.03294E-001	0.00000E+000	...........	1468.88
	2225	1135.26	4.03288E-001	4.03286E-001	0.00000E+000	...........	1468.88
	2226	1135.77	4.03289E-001	4.03289E-001	0.00000E+000	...........	1468.88
	2227	1136.28	4.03289E-001	4.03289E-001	0.00000E+000	...........	1468.88
	2228	1136.79	4.03289E-001	4.03308E-001	0.00000E+000	...........	1468.88
	2229	1137.3	4.03291E-001	4.03293E-001	0.00000E+000	...........	1468.97
	2230	1137.81	4.03293E-001	4.03293E-001	0.00000E+000	...........	1468.97
	2231	1138.32	4.03296E-001	4.03299E-001	0.00000E+000	...........	1468.88
	2232	1138.83	4.03297E-001	4.03307E-001	0.00000E+000	...........	1468.80
	2233	1139.34	4.03298E-001	4.03300E-001	0.00000E+000	...........	1468.52
	2234	1139.85	4.03300E-001	4.03303E-001	0.00000E+000	...........	1468.66
	2235	1140.36	4.03301E-001	4.03307E-001	0.00000E+000	...........	1468.88
	2236	1140.87	4.03303E-001	4.03319E-001	0.00000E+000	...........	1468.82
	2237	1141.38	4.03305E-001	4.03306E-001	0.00000E+000	...........	1468.79
	2238	1141.89	4.03308E-001	4.03315E-001	0.00000E+000	...........	1468.86
	2239	1142.4	4.03310E-001	4.03314E-001	0.00000E+000	...........	1468.88
	2240	1142.91	4.03312E-001	4.03311E-001	0.00000E+000	...........	1468.88
	2241	1143.42	4.03313E-001	4.03317E-001	0.00000E+000	...........	1468.88
	2242	1143.93	4.03314E-001	4.03324E-001	0.00000E+000	...........	1468.88
	2243	1144.44	4.03315E-001	4.03319E-001	0.00000E+000	...........	1468.88
	2244	1144.95	4.03317E-001	4.03314E-001	0.00000E+000	...........	1468.88
	2245	1145.46	4.03318E-001	4.03311E-001	0.00000E+000	...........	1468.88
	2246	1145.97	4.03318E-001	4.03317E-001	0.00000E+000	...........	1468.88
	2247	1146.48	4.03316E-001	4.03327E-001	0.00000E+000	...........	1468.88
	2248	1146.99	4.03316E-001	4.03332E-001	0.00000E+000	...........	1468.97
	2249	1147.5	4.03320E-001	4.03345E-001	0.00000E+000	...........	1468.97
	2250	1148.01	4.03325E-001	4.03344E-001	0.00000E+000	...........	1468.97
	2251	1148.52	4.03332E-001	4.03345E-001	0.00000E+000	...........	1468.97
	2252	1149.03	4.03338E-001	4.03338E-001	0.00000E+000	...........	1468.97
	2253	1149.54	4.03342E-001	4.03344E-001	0.00000E+000	...........	1468.97
	2254	1150.05	4.03343E-001	4.03346E-001	0.00000E+000	...........	1468.88
	2255	1150.56	4.03343E-001	4.03351E-001	0.00000E+000	...........	1468.88
	2256	1151.07	4.03345E-001	4.03352E-001	0.00000E+000	...........	1468.97
	2257	1151.58	4.03347E-001	4.03358E-001	0.00000E+000	...........	1468.97
	2258	1152.09	4.03350E-001	4.03357E-001	0.00000E+000	...........	1468.88
	2259	1152.6	4.03353E-001	4.03363E-001	0.00000E+000	...........	1468.88
	2260	1153.11	4.03356E-001	4.03360E-001	0.00000E+000	...........	1468.88
	2261	1153.62	4.03358E-001	4.03369E-001	0.00000E+000	...........	1468.88
	2262	1154.13	4.03361E-001	4.03374E-001	0.00000E+000	...........	1468.88
	2263	1154.64	4.03364E-001	4.03389E-001	0.00000E+000	...........	1468.88
	2264	1155.15	4.03369E-001	4.03391E-001	0.00000E+000	...........	1468.88
	2265	1155.66	4.03376E-001	4.03383E-001	0.00000E+000	...........	1468.88
	2266	1156.17	4.03382E-001	4.03389E-001	0.00000E+000	...........	1468.88
	2267	1156.68	4.03386E-001	4.03398E-001	0.00000E+000	...........	1468.88
	2268	1157.19	4.03389E-001	4.03403E-001	0.00000E+000	...........	1468.88
	2269	1157.7	4.03392E-001	4.03421E-001	0.00000E+000	...........	1468.88
	2270	1158.21	4.03398E-001	4.03411E-001	0.00000E+000	...........	1468.88
	2271	1158.72	4.03404E-001	4.03413E-001	0.00000E+000	...........	1468.88
	2272	1159.23	4.03410E-001	4.03418E-001	0.00000E+000	...........	1468.88
	2273	1159.74	4.03413E-001	4.03419E-001	0.00000E+000	...........	1468.88
	2274	1160.25	4.03415E-001	4.03426E-001	0.00000E+000	...........	1468.88
	2275	1160.76	4.03417E-001	4.03427E-001	0.00000E+000	...........	1468.88
	2276	1161.27	4.03421E-001	4.03434E-001	0.00000E+000	...........	1468.88
	2277	1161.78	4.03424E-001	4.03437E-001	0.00000E+000	...........	1468.88
	2278	1162.29	4.03428E-001	4.03447E-001	0.00000E+000	...........	1468.88
	2279	1162.8	4.03433E-001	4.03445E-001	0.00000E+000	...........	1468.88
	2280	1163.31	4.03438E-001	4.03448E-001	0.00000E+000	...........	1468.88
	2281	1163.82	4.03442E-001	4.03457E-001	0.00000E+000	...........	1468.88
	2282	1164.33	4.03446E-001	4.03453E-001	0.00000E+000	...........	1468.88
	2283	1164.84	4.03449E-001	4.03450E-001	0.00000E+000	...........	1468.85
	2284	1165.35	4.03452E-001	4.03453E-001	0.00000E+000	...........	1468.79
	2285	1165.86	4.03453E-001	4.03468E-001	0.00000E+000	...........	1468.83
	2286	1166.37	4.03454E-001	4.03469E-001	0.00000E+000	...........	1468.88
	2287	1166.88	4.03458E-001	4.03473E-001	0.00000E+000	...........	1468.88
	2288	1167.39	4.03463E-001	4.03472E-001	0.00000E+000	...........	1468.88
	2289	1167.9	4.03467E-001	4.03475E-001	0.00000E+000	...........	1468.88
	2290	1168.41	4.03471E-001	4.03483E-001	0.00000E+000	...........	1468.88
	2291	1168.92	4.03474E-001	4.03494E-001	0.00000E+000	...........	1468.88
	2292	1169.43	4.03478E-001	4.03490E-001	0.00000E+000	...........	1468.88
	2293	1169.94	4.03483E-001	4.03484E-001	0.00000E+000	...........	1468.88
	2294	1170.45	4.03486E-001	4.03487E-001	0.00000E+000	...........	1468.88
	2295	1170.96	4.03488E-001	4.03486E-001	0.00000E+000	...........	1468.97
	2296	1171.47	4.03488E-001	4.03491E-001	0.00000E+000	...........	1468.97
	2297	1171.98	4.03488E-001	4.03503E-001	0.00000E+000	...........	1468.88
	2298	1172.49	4.03490E-001	4.03510E-001	0.00000E+000	...........	1468.88
	2299	1173	4.03494E-001	4.03507E-001	0.00000E+000	...........	1468.97
	2300	1173.51	4.03500E-001	4.03501E-001	0.00000E+000	...........	1468.97
	2301	1174.02	4.03504E-001	4.03501E-001	0.00000E+000	...........	1468.88
	2302	1174.53	4.03505E-001	4.03511E-001	0.00000E+000	...........	1468.88
	2303	1175.04	4.03505E-001	4.03518E-001	0.00000E+000	...........	1468.88
	2304	1175.55	4.03507E-001	4.03513E-001	0.00000E+000	...........	1468.88
	2305	1176.06	4.03510E-001	4.03534E-001	0.00000E+000	...........	1468.88
	2306	1176.57	4.03515E-001	4.03527E-001	0.00000E+000	...........	1468.88
	2307	1177.08	4.03520E-001	4.03530E-001	0.00000E+000	...........	1468.88
	2308	1177.59	4.03525E-001	4.03547E-001	0.00000E+000	...........	1468.88
	2309	1178.1	4.03530E-001	4.03545E-001	0.00000E+000	...........	1468.97
	2310	1178.61	4.03535E-001	4.03545E-001	0.00000E+000	...........	1468.97
	2311	1179.12	4.03540E-001	4.03553E-001	0.00000E+000	...........	1468.88
	2312	1179.63	4.03544E-001	4.03556E-001	0.00000E+000	...........	1468.88
	2313	1180.14	4.03548E-001	4.03555E-001	0.00000E+000	...........	1468.88
	2314	1180.65	4.03551E-001	4.03567E-001	0.00000E+000	...........	1468.88
	2315	1181.16	4.03555E-001	4.03578E-001	0.00000E+000	...........	1468.88
	2316	1181.67	4.03560E-001	4.03582E-001	0.00000E+000	...........	1468.88
	2317	1182.18	4.03567E-001	4.03575E-001	0.00000E+000	...........	1468.97
	2318	1182.69	4.03573E-001	4.03584E-001	0.00000E+000	...........	1468.97
	2319	1183.2	4.03577E-001	4.03581E-001	0.00000E+000	...........	1468.97
	2320	1183.71	4.03580E-001	4.03589E-001	0.00000E+000	...........	1468.97
	2321	1184.22	4.03582E-001	4.03601E-001	0.00000E+000	...........	1468.88
	2322	1184.73	4.03586E-001	4.03618E-001	0.00000E+000	...........	1468.88
	2323	1185.24	4.03592E-001	4.03609E-001	0.00000E+000	...........	1468.97
	2324	1185.75	4.03600E-001	4.03622E-001	0.00000E+000	...........	1468.97
	2325	1186.26	4.03608E-001	4.03625E-001	0.00000E+000	...........	1468.88
	2326	1186.77	4.03614E-001	4.03634E-001	0.00000E+000	...........	1468.88
	2327	1187.28	4.03620E-001	4.03638E-001	0.00000E+000	...........	1468.97
	2328	1187.79	4.03626E-001	4.03640E-001	0.00000E+000	...........	1468.97
	2329	1188.3	4.03632E-001	4.03656E-001	0.00000E+000	...........	1468.79
	2330	1188.81	4.03638E-001	4.03659E-001	0.00000E+000	...........	1468.79
	2331	1189.32	4.03644E-001	4.03657E-001	0.00000E+000	...........	1468.70
	2332	1189.83	4.03650E-001	4.03657E-001	0.00000E+000	...........	1468.72
	2333	1190.34	4.03655E-001	4.03678E-001	0.00000E+000	...........	1468.79
	2334	1190.85	4.03659E-001	4.03679E-001	0.00000E+000	...........	1468.82
	2335	1191.36	4.03665E-001	4.03675E-001	0.00000E+000	...........	1468.88
	2336	1191.87	4.03670E-001	4.03682E-001	0.00000E+000	...........	1468.88
	2337	1192.38	4.03675E-001	4.03695E-001	0.00000E+000	...........	1468.88
	2338	1192.89	4.03680E-001	4.03703E-001	0.00000E+000	...........	1468.88
	2339	1193.4	4.03686E-001	4.03708E-001	0.00000E+000	...........	1468.88
	2340	1193.91	4.03693E-001	4.03713E-001	0.00000E+000	...........	1468.88
	2341	1194.42	4.03700E-001	4.03716E-001	0.00000E+000	...........	1468.88
	2342	1194.93	4.03707E-001	4.03732E-001	0.00000E+000	...........	1468.88
	2343	1195.44	4.03713E-001	4.03731E-001	0.00000E+000	...........	1468.88
	2344	1195.95	4.03720E-001	4.03739E-001	0.00000E+000	...........	1468.97
	2345	1196.46	4.03726E-001	4.03746E-001	0.00000E+000	...........	1468.97
	2346	1196.97	4.03733E-001	4.03755E-001	0.00000E+000	...........	1468.97
	2347	1197.48	4.03739E-001	4.03769E-001	0.00000E+000	...........	1468.97
	2348	1197.99	4.03747E-001	4.03777E-001	0.00000E+000	...........	1468.97
	2349	1198.5	4.03756E-001	4.03782E-001	0.00000E+000	...........	1468.97
	2350	1199.01	4.03766E-001	4.03790E-001	0.00000E+000	...........	1468.88
	2351	1199.52	4.03774E-001	4.03798E-001	0.00000E+000	...........	1468.88
	2352	1200.03	4.03782E-001	4.03804E-001	0.00000E+000	...........	1468.97
